# E (eV)  ldosup(E)  ldosdw(E) pdosup(E)  pdosdw(E) 
 -21.887  0.000E+00  0.000E+00  0.000E+00  0.000E+00
 -21.877  0.303E-01  0.303E-01  0.303E-01  0.303E-01
 -21.867  0.604E-01  0.604E-01  0.604E-01  0.604E-01
 -21.857  0.902E-01  0.903E-01  0.902E-01  0.903E-01
 -21.847  0.120E+00  0.120E+00  0.120E+00  0.120E+00
 -21.837  0.635E-01  0.635E-01  0.635E-01  0.635E-01
 -21.827  0.658E-01  0.658E-01  0.658E-01  0.658E-01
 -21.817  0.680E-01  0.680E-01  0.680E-01  0.680E-01
 -21.807  0.703E-01  0.703E-01  0.703E-01  0.703E-01
 -21.797  0.725E-01  0.725E-01  0.725E-01  0.725E-01
 -21.787  0.747E-01  0.747E-01  0.747E-01  0.747E-01
 -21.777  0.768E-01  0.769E-01  0.768E-01  0.769E-01
 -21.767  0.790E-01  0.790E-01  0.790E-01  0.790E-01
 -21.757  0.774E-01  0.774E-01  0.774E-01  0.774E-01
 -21.747  0.741E-01  0.741E-01  0.741E-01  0.741E-01
 -21.737  0.709E-01  0.709E-01  0.709E-01  0.709E-01
 -21.727  0.677E-01  0.677E-01  0.677E-01  0.677E-01
 -21.717  0.668E-01  0.668E-01  0.668E-01  0.668E-01
 -21.707  0.674E-01  0.674E-01  0.674E-01  0.674E-01
 -21.697  0.680E-01  0.680E-01  0.680E-01  0.680E-01
 -21.687  0.686E-01  0.686E-01  0.686E-01  0.686E-01
 -21.677  0.692E-01  0.692E-01  0.692E-01  0.692E-01
 -21.667  0.698E-01  0.698E-01  0.698E-01  0.698E-01
 -21.657  0.704E-01  0.704E-01  0.704E-01  0.704E-01
 -21.647  0.710E-01  0.710E-01  0.710E-01  0.710E-01
 -21.637  0.716E-01  0.716E-01  0.716E-01  0.716E-01
 -21.627  0.722E-01  0.722E-01  0.722E-01  0.722E-01
 -21.617  0.728E-01  0.728E-01  0.728E-01  0.728E-01
 -21.607  0.734E-01  0.734E-01  0.734E-01  0.734E-01
 -21.597  0.681E-01  0.681E-01  0.681E-01  0.681E-01
 -21.587  0.677E-01  0.677E-01  0.677E-01  0.677E-01
 -21.577  0.673E-01  0.673E-01  0.673E-01  0.673E-01
 -21.567  0.669E-01  0.669E-01  0.669E-01  0.669E-01
 -21.557  0.666E-01  0.666E-01  0.666E-01  0.666E-01
 -21.547  0.662E-01  0.662E-01  0.662E-01  0.662E-01
 -21.537  0.659E-01  0.659E-01  0.659E-01  0.659E-01
 -21.527  0.655E-01  0.655E-01  0.655E-01  0.655E-01
 -21.517  0.652E-01  0.652E-01  0.652E-01  0.652E-01
 -21.507  0.655E-01  0.655E-01  0.655E-01  0.655E-01
 -21.497  0.657E-01  0.657E-01  0.657E-01  0.657E-01
 -21.487  0.659E-01  0.659E-01  0.659E-01  0.659E-01
 -21.477  0.661E-01  0.661E-01  0.661E-01  0.661E-01
 -21.467  0.663E-01  0.663E-01  0.663E-01  0.663E-01
 -21.457  0.666E-01  0.666E-01  0.666E-01  0.666E-01
 -21.447  0.668E-01  0.668E-01  0.668E-01  0.668E-01
 -21.437  0.670E-01  0.670E-01  0.670E-01  0.670E-01
 -21.427  0.672E-01  0.672E-01  0.672E-01  0.672E-01
 -21.417  0.674E-01  0.674E-01  0.674E-01  0.674E-01
 -21.407  0.676E-01  0.676E-01  0.676E-01  0.676E-01
 -21.397  0.678E-01  0.678E-01  0.678E-01  0.678E-01
 -21.387  0.668E-01  0.668E-01  0.668E-01  0.668E-01
 -21.377  0.656E-01  0.656E-01  0.656E-01  0.656E-01
 -21.367  0.645E-01  0.645E-01  0.645E-01  0.645E-01
 -21.357  0.633E-01  0.633E-01  0.633E-01  0.633E-01
 -21.347  0.630E-01  0.630E-01  0.630E-01  0.630E-01
 -21.337  0.629E-01  0.629E-01  0.629E-01  0.629E-01
 -21.327  0.628E-01  0.628E-01  0.628E-01  0.628E-01
 -21.317  0.628E-01  0.628E-01  0.628E-01  0.628E-01
 -21.307  0.627E-01  0.627E-01  0.627E-01  0.627E-01
 -21.297  0.626E-01  0.626E-01  0.626E-01  0.626E-01
 -21.287  0.625E-01  0.625E-01  0.625E-01  0.625E-01
 -21.277  0.624E-01  0.624E-01  0.624E-01  0.624E-01
 -21.267  0.624E-01  0.624E-01  0.624E-01  0.624E-01
 -21.257  0.623E-01  0.623E-01  0.623E-01  0.623E-01
 -21.247  0.622E-01  0.622E-01  0.622E-01  0.622E-01
 -21.237  0.621E-01  0.621E-01  0.621E-01  0.621E-01
 -21.227  0.622E-01  0.622E-01  0.622E-01  0.622E-01
 -21.217  0.622E-01  0.622E-01  0.622E-01  0.622E-01
 -21.207  0.623E-01  0.623E-01  0.623E-01  0.623E-01
 -21.197  0.624E-01  0.624E-01  0.624E-01  0.624E-01
 -21.187  0.625E-01  0.625E-01  0.625E-01  0.625E-01
 -21.177  0.626E-01  0.626E-01  0.626E-01  0.626E-01
 -21.167  0.627E-01  0.627E-01  0.627E-01  0.627E-01
 -21.157  0.627E-01  0.627E-01  0.627E-01  0.627E-01
 -21.147  0.628E-01  0.628E-01  0.628E-01  0.628E-01
 -21.137  0.629E-01  0.629E-01  0.629E-01  0.629E-01
 -21.127  0.630E-01  0.630E-01  0.630E-01  0.630E-01
 -21.117  0.630E-01  0.630E-01  0.630E-01  0.630E-01
 -21.107  0.612E-01  0.612E-01  0.612E-01  0.612E-01
 -21.097  0.609E-01  0.609E-01  0.609E-01  0.609E-01
 -21.087  0.606E-01  0.606E-01  0.606E-01  0.606E-01
 -21.077  0.603E-01  0.603E-01  0.603E-01  0.603E-01
 -21.067  0.601E-01  0.601E-01  0.601E-01  0.601E-01
 -21.057  0.598E-01  0.598E-01  0.598E-01  0.598E-01
 -21.047  0.595E-01  0.595E-01  0.595E-01  0.595E-01
 -21.037  0.592E-01  0.592E-01  0.592E-01  0.592E-01
 -21.027  0.590E-01  0.590E-01  0.590E-01  0.590E-01
 -21.017  0.589E-01  0.589E-01  0.589E-01  0.589E-01
 -21.007  0.589E-01  0.589E-01  0.589E-01  0.589E-01
 -20.997  0.589E-01  0.589E-01  0.589E-01  0.589E-01
 -20.987  0.588E-01  0.588E-01  0.588E-01  0.588E-01
 -20.977  0.588E-01  0.588E-01  0.588E-01  0.588E-01
 -20.967  0.588E-01  0.588E-01  0.588E-01  0.588E-01
 -20.957  0.588E-01  0.588E-01  0.588E-01  0.588E-01
 -20.947  0.587E-01  0.587E-01  0.587E-01  0.587E-01
 -20.937  0.587E-01  0.587E-01  0.587E-01  0.587E-01
 -20.927  0.587E-01  0.587E-01  0.587E-01  0.587E-01
 -20.917  0.586E-01  0.586E-01  0.586E-01  0.586E-01
 -20.907  0.586E-01  0.586E-01  0.586E-01  0.586E-01
 -20.897  0.586E-01  0.586E-01  0.586E-01  0.586E-01
 -20.887  0.586E-01  0.586E-01  0.586E-01  0.586E-01
 -20.877  0.585E-01  0.585E-01  0.585E-01  0.585E-01
 -20.867  0.585E-01  0.585E-01  0.585E-01  0.585E-01
 -20.857  0.585E-01  0.585E-01  0.585E-01  0.585E-01
 -20.847  0.586E-01  0.586E-01  0.586E-01  0.586E-01
 -20.837  0.586E-01  0.586E-01  0.586E-01  0.586E-01
 -20.827  0.586E-01  0.586E-01  0.586E-01  0.586E-01
 -20.817  0.586E-01  0.586E-01  0.586E-01  0.586E-01
 -20.807  0.587E-01  0.587E-01  0.587E-01  0.587E-01
 -20.797  0.587E-01  0.587E-01  0.587E-01  0.587E-01
 -20.787  0.587E-01  0.587E-01  0.587E-01  0.587E-01
 -20.777  0.583E-01  0.583E-01  0.583E-01  0.583E-01
 -20.767  0.578E-01  0.578E-01  0.578E-01  0.578E-01
 -20.757  0.573E-01  0.573E-01  0.573E-01  0.573E-01
 -20.747  0.568E-01  0.568E-01  0.568E-01  0.568E-01
 -20.737  0.566E-01  0.566E-01  0.566E-01  0.566E-01
 -20.727  0.565E-01  0.565E-01  0.565E-01  0.565E-01
 -20.717  0.563E-01  0.563E-01  0.563E-01  0.563E-01
 -20.707  0.562E-01  0.562E-01  0.562E-01  0.562E-01
 -20.697  0.561E-01  0.561E-01  0.561E-01  0.561E-01
 -20.687  0.560E-01  0.560E-01  0.560E-01  0.560E-01
 -20.677  0.559E-01  0.559E-01  0.559E-01  0.559E-01
 -20.667  0.558E-01  0.558E-01  0.558E-01  0.558E-01
 -20.657  0.557E-01  0.557E-01  0.557E-01  0.557E-01
 -20.647  0.556E-01  0.556E-01  0.556E-01  0.556E-01
 -20.637  0.554E-01  0.554E-01  0.554E-01  0.554E-01
 -20.627  0.553E-01  0.553E-01  0.553E-01  0.553E-01
 -20.617  0.553E-01  0.553E-01  0.553E-01  0.553E-01
 -20.607  0.553E-01  0.553E-01  0.553E-01  0.553E-01
 -20.597  0.553E-01  0.553E-01  0.553E-01  0.553E-01
 -20.587  0.552E-01  0.552E-01  0.552E-01  0.552E-01
 -20.577  0.552E-01  0.552E-01  0.552E-01  0.552E-01
 -20.567  0.552E-01  0.552E-01  0.552E-01  0.552E-01
 -20.557  0.552E-01  0.552E-01  0.552E-01  0.552E-01
 -20.547  0.552E-01  0.552E-01  0.552E-01  0.552E-01
 -20.537  0.552E-01  0.552E-01  0.552E-01  0.552E-01
 -20.527  0.551E-01  0.551E-01  0.551E-01  0.551E-01
 -20.517  0.551E-01  0.551E-01  0.551E-01  0.551E-01
 -20.507  0.551E-01  0.551E-01  0.551E-01  0.551E-01
 -20.497  0.551E-01  0.551E-01  0.551E-01  0.551E-01
 -20.487  0.551E-01  0.551E-01  0.551E-01  0.551E-01
 -20.477  0.551E-01  0.551E-01  0.551E-01  0.551E-01
 -20.467  0.550E-01  0.550E-01  0.550E-01  0.550E-01
 -20.457  0.550E-01  0.550E-01  0.550E-01  0.550E-01
 -20.447  0.550E-01  0.550E-01  0.550E-01  0.550E-01
 -20.437  0.550E-01  0.550E-01  0.550E-01  0.550E-01
 -20.427  0.550E-01  0.550E-01  0.550E-01  0.550E-01
 -20.417  0.550E-01  0.550E-01  0.550E-01  0.550E-01
 -20.407  0.550E-01  0.550E-01  0.550E-01  0.550E-01
 -20.397  0.550E-01  0.550E-01  0.550E-01  0.550E-01
 -20.387  0.550E-01  0.550E-01  0.550E-01  0.550E-01
 -20.377  0.542E-01  0.542E-01  0.542E-01  0.542E-01
 -20.367  0.540E-01  0.540E-01  0.540E-01  0.540E-01
 -20.357  0.538E-01  0.538E-01  0.538E-01  0.538E-01
 -20.347  0.537E-01  0.537E-01  0.537E-01  0.537E-01
 -20.337  0.535E-01  0.535E-01  0.535E-01  0.535E-01
 -20.327  0.533E-01  0.533E-01  0.533E-01  0.533E-01
 -20.317  0.532E-01  0.532E-01  0.532E-01  0.532E-01
 -20.307  0.530E-01  0.530E-01  0.530E-01  0.530E-01
 -20.297  0.529E-01  0.529E-01  0.529E-01  0.529E-01
 -20.287  0.529E-01  0.529E-01  0.529E-01  0.529E-01
 -20.277  0.528E-01  0.528E-01  0.528E-01  0.528E-01
 -20.267  0.527E-01  0.527E-01  0.527E-01  0.527E-01
 -20.257  0.527E-01  0.527E-01  0.527E-01  0.527E-01
 -20.247  0.526E-01  0.526E-01  0.526E-01  0.526E-01
 -20.237  0.526E-01  0.526E-01  0.526E-01  0.526E-01
 -20.227  0.525E-01  0.525E-01  0.525E-01  0.525E-01
 -20.217  0.525E-01  0.525E-01  0.525E-01  0.525E-01
 -20.207  0.524E-01  0.524E-01  0.524E-01  0.524E-01
 -20.197  0.524E-01  0.524E-01  0.524E-01  0.524E-01
 -20.187  0.523E-01  0.523E-01  0.523E-01  0.523E-01
 -20.177  0.523E-01  0.523E-01  0.523E-01  0.523E-01
 -20.167  0.522E-01  0.522E-01  0.522E-01  0.522E-01
 -20.157  0.521E-01  0.521E-01  0.521E-01  0.521E-01
 -20.147  0.521E-01  0.521E-01  0.521E-01  0.521E-01
 -20.137  0.521E-01  0.521E-01  0.521E-01  0.521E-01
 -20.127  0.520E-01  0.520E-01  0.520E-01  0.520E-01
 -20.117  0.520E-01  0.520E-01  0.520E-01  0.520E-01
 -20.107  0.520E-01  0.520E-01  0.520E-01  0.520E-01
 -20.097  0.520E-01  0.520E-01  0.520E-01  0.520E-01
 -20.087  0.520E-01  0.520E-01  0.520E-01  0.520E-01
 -20.077  0.520E-01  0.520E-01  0.520E-01  0.520E-01
 -20.067  0.520E-01  0.520E-01  0.520E-01  0.520E-01
 -20.057  0.520E-01  0.520E-01  0.520E-01  0.520E-01
 -20.047  0.519E-01  0.519E-01  0.519E-01  0.519E-01
 -20.037  0.519E-01  0.519E-01  0.519E-01  0.519E-01
 -20.027  0.519E-01  0.519E-01  0.519E-01  0.519E-01
 -20.017  0.519E-01  0.519E-01  0.519E-01  0.519E-01
 -20.007  0.519E-01  0.519E-01  0.519E-01  0.519E-01
 -19.997  0.519E-01  0.519E-01  0.519E-01  0.519E-01
 -19.987  0.519E-01  0.519E-01  0.519E-01  0.519E-01
 -19.977  0.519E-01  0.519E-01  0.519E-01  0.519E-01
 -19.967  0.519E-01  0.518E-01  0.519E-01  0.518E-01
 -19.957  0.518E-01  0.518E-01  0.518E-01  0.518E-01
 -19.947  0.518E-01  0.518E-01  0.518E-01  0.518E-01
 -19.937  0.517E-01  0.517E-01  0.517E-01  0.517E-01
 -19.927  0.515E-01  0.515E-01  0.515E-01  0.515E-01
 -19.917  0.512E-01  0.512E-01  0.512E-01  0.512E-01
 -19.907  0.509E-01  0.509E-01  0.509E-01  0.509E-01
 -19.897  0.507E-01  0.507E-01  0.507E-01  0.507E-01
 -19.887  0.506E-01  0.506E-01  0.506E-01  0.506E-01
 -19.877  0.506E-01  0.506E-01  0.506E-01  0.506E-01
 -19.867  0.505E-01  0.505E-01  0.505E-01  0.505E-01
 -19.857  0.504E-01  0.504E-01  0.504E-01  0.504E-01
 -19.847  0.503E-01  0.503E-01  0.503E-01  0.503E-01
 -19.837  0.503E-01  0.503E-01  0.503E-01  0.503E-01
 -19.827  0.502E-01  0.502E-01  0.502E-01  0.502E-01
 -19.817  0.501E-01  0.501E-01  0.501E-01  0.501E-01
 -19.807  0.501E-01  0.501E-01  0.501E-01  0.501E-01
 -19.797  0.500E-01  0.500E-01  0.500E-01  0.500E-01
 -19.787  0.499E-01  0.499E-01  0.499E-01  0.499E-01
 -19.777  0.499E-01  0.499E-01  0.499E-01  0.499E-01
 -19.767  0.498E-01  0.498E-01  0.498E-01  0.498E-01
 -19.757  0.498E-01  0.498E-01  0.498E-01  0.498E-01
 -19.747  0.498E-01  0.498E-01  0.498E-01  0.498E-01
 -19.737  0.497E-01  0.497E-01  0.497E-01  0.497E-01
 -19.727  0.497E-01  0.497E-01  0.497E-01  0.497E-01
 -19.717  0.497E-01  0.497E-01  0.497E-01  0.497E-01
 -19.707  0.496E-01  0.496E-01  0.496E-01  0.496E-01
 -19.697  0.496E-01  0.496E-01  0.496E-01  0.496E-01
 -19.687  0.496E-01  0.496E-01  0.496E-01  0.496E-01
 -19.677  0.496E-01  0.496E-01  0.496E-01  0.496E-01
 -19.667  0.495E-01  0.495E-01  0.495E-01  0.495E-01
 -19.657  0.495E-01  0.495E-01  0.495E-01  0.495E-01
 -19.647  0.495E-01  0.495E-01  0.495E-01  0.495E-01
 -19.637  0.494E-01  0.494E-01  0.494E-01  0.494E-01
 -19.627  0.494E-01  0.494E-01  0.494E-01  0.494E-01
 -19.617  0.494E-01  0.494E-01  0.494E-01  0.494E-01
 -19.607  0.494E-01  0.494E-01  0.494E-01  0.494E-01
 -19.597  0.493E-01  0.493E-01  0.493E-01  0.493E-01
 -19.587  0.493E-01  0.493E-01  0.493E-01  0.493E-01
 -19.577  0.493E-01  0.493E-01  0.493E-01  0.493E-01
 -19.567  0.493E-01  0.493E-01  0.493E-01  0.493E-01
 -19.557  0.493E-01  0.493E-01  0.493E-01  0.493E-01
 -19.547  0.493E-01  0.493E-01  0.493E-01  0.493E-01
 -19.537  0.492E-01  0.492E-01  0.492E-01  0.492E-01
 -19.527  0.492E-01  0.492E-01  0.492E-01  0.492E-01
 -19.517  0.492E-01  0.492E-01  0.492E-01  0.492E-01
 -19.507  0.492E-01  0.492E-01  0.492E-01  0.492E-01
 -19.497  0.492E-01  0.492E-01  0.492E-01  0.492E-01
 -19.487  0.492E-01  0.492E-01  0.492E-01  0.492E-01
 -19.477  0.492E-01  0.492E-01  0.492E-01  0.492E-01
 -19.467  0.492E-01  0.492E-01  0.492E-01  0.492E-01
 -19.457  0.492E-01  0.492E-01  0.492E-01  0.492E-01
 -19.447  0.492E-01  0.492E-01  0.492E-01  0.492E-01
 -19.437  0.492E-01  0.492E-01  0.492E-01  0.492E-01
 -19.427  0.492E-01  0.492E-01  0.492E-01  0.492E-01
 -19.417  0.487E-01  0.487E-01  0.487E-01  0.487E-01
 -19.407  0.486E-01  0.486E-01  0.486E-01  0.486E-01
 -19.397  0.485E-01  0.485E-01  0.485E-01  0.485E-01
 -19.387  0.484E-01  0.484E-01  0.484E-01  0.484E-01
 -19.377  0.483E-01  0.483E-01  0.483E-01  0.483E-01
 -19.367  0.482E-01  0.482E-01  0.482E-01  0.482E-01
 -19.357  0.481E-01  0.481E-01  0.481E-01  0.481E-01
 -19.347  0.480E-01  0.480E-01  0.480E-01  0.480E-01
 -19.337  0.480E-01  0.480E-01  0.480E-01  0.480E-01
 -19.327  0.479E-01  0.479E-01  0.479E-01  0.479E-01
 -19.317  0.479E-01  0.479E-01  0.479E-01  0.479E-01
 -19.307  0.479E-01  0.478E-01  0.479E-01  0.478E-01
 -19.297  0.478E-01  0.478E-01  0.478E-01  0.478E-01
 -19.287  0.478E-01  0.478E-01  0.478E-01  0.478E-01
 -19.277  0.477E-01  0.477E-01  0.477E-01  0.477E-01
 -19.267  0.477E-01  0.477E-01  0.477E-01  0.477E-01
 -19.257  0.477E-01  0.477E-01  0.477E-01  0.477E-01
 -19.247  0.476E-01  0.476E-01  0.476E-01  0.476E-01
 -19.237  0.476E-01  0.476E-01  0.476E-01  0.476E-01
 -19.227  0.476E-01  0.476E-01  0.476E-01  0.476E-01
 -19.217  0.475E-01  0.475E-01  0.475E-01  0.475E-01
 -19.207  0.475E-01  0.475E-01  0.475E-01  0.475E-01
 -19.197  0.475E-01  0.475E-01  0.475E-01  0.475E-01
 -19.187  0.474E-01  0.474E-01  0.474E-01  0.474E-01
 -19.177  0.474E-01  0.474E-01  0.474E-01  0.474E-01
 -19.167  0.474E-01  0.474E-01  0.474E-01  0.474E-01
 -19.157  0.474E-01  0.474E-01  0.474E-01  0.474E-01
 -19.147  0.473E-01  0.473E-01  0.473E-01  0.473E-01
 -19.137  0.473E-01  0.473E-01  0.473E-01  0.473E-01
 -19.127  0.473E-01  0.473E-01  0.473E-01  0.473E-01
 -19.117  0.473E-01  0.473E-01  0.473E-01  0.473E-01
 -19.107  0.473E-01  0.473E-01  0.473E-01  0.473E-01
 -19.097  0.473E-01  0.473E-01  0.473E-01  0.473E-01
 -19.087  0.473E-01  0.473E-01  0.473E-01  0.473E-01
 -19.077  0.472E-01  0.472E-01  0.472E-01  0.472E-01
 -19.067  0.472E-01  0.472E-01  0.472E-01  0.472E-01
 -19.057  0.472E-01  0.472E-01  0.472E-01  0.472E-01
 -19.047  0.472E-01  0.472E-01  0.472E-01  0.472E-01
 -19.037  0.472E-01  0.472E-01  0.472E-01  0.472E-01
 -19.027  0.472E-01  0.472E-01  0.472E-01  0.472E-01
 -19.017  0.471E-01  0.471E-01  0.471E-01  0.471E-01
 -19.007  0.471E-01  0.471E-01  0.471E-01  0.471E-01
 -18.997  0.471E-01  0.471E-01  0.471E-01  0.471E-01
 -18.987  0.471E-01  0.471E-01  0.471E-01  0.471E-01
 -18.977  0.471E-01  0.471E-01  0.471E-01  0.471E-01
 -18.967  0.471E-01  0.471E-01  0.471E-01  0.471E-01
 -18.957  0.471E-01  0.471E-01  0.471E-01  0.471E-01
 -18.947  0.470E-01  0.470E-01  0.470E-01  0.470E-01
 -18.937  0.470E-01  0.470E-01  0.470E-01  0.470E-01
 -18.927  0.470E-01  0.470E-01  0.470E-01  0.470E-01
 -18.917  0.470E-01  0.470E-01  0.470E-01  0.470E-01
 -18.907  0.470E-01  0.470E-01  0.470E-01  0.470E-01
 -18.897  0.470E-01  0.470E-01  0.470E-01  0.470E-01
 -18.887  0.470E-01  0.470E-01  0.470E-01  0.470E-01
 -18.877  0.470E-01  0.470E-01  0.470E-01  0.470E-01
 -18.867  0.470E-01  0.470E-01  0.470E-01  0.470E-01
 -18.857  0.468E-01  0.468E-01  0.468E-01  0.468E-01
 -18.847  0.467E-01  0.467E-01  0.467E-01  0.467E-01
 -18.837  0.465E-01  0.465E-01  0.465E-01  0.465E-01
 -18.827  0.465E-01  0.465E-01  0.465E-01  0.465E-01
 -18.817  0.464E-01  0.464E-01  0.464E-01  0.464E-01
 -18.807  0.464E-01  0.464E-01  0.464E-01  0.464E-01
 -18.797  0.463E-01  0.463E-01  0.463E-01  0.463E-01
 -18.787  0.463E-01  0.463E-01  0.463E-01  0.463E-01
 -18.777  0.462E-01  0.462E-01  0.462E-01  0.462E-01
 -18.767  0.462E-01  0.462E-01  0.462E-01  0.462E-01
 -18.757  0.462E-01  0.462E-01  0.462E-01  0.462E-01
 -18.747  0.461E-01  0.461E-01  0.461E-01  0.461E-01
 -18.737  0.461E-01  0.461E-01  0.461E-01  0.461E-01
 -18.727  0.460E-01  0.460E-01  0.460E-01  0.460E-01
 -18.717  0.460E-01  0.460E-01  0.460E-01  0.460E-01
 -18.707  0.460E-01  0.460E-01  0.460E-01  0.460E-01
 -18.697  0.459E-01  0.459E-01  0.459E-01  0.459E-01
 -18.687  0.459E-01  0.459E-01  0.459E-01  0.459E-01
 -18.677  0.459E-01  0.459E-01  0.459E-01  0.459E-01
 -18.667  0.459E-01  0.459E-01  0.459E-01  0.459E-01
 -18.657  0.459E-01  0.459E-01  0.459E-01  0.459E-01
 -18.647  0.458E-01  0.458E-01  0.458E-01  0.458E-01
 -18.637  0.458E-01  0.458E-01  0.458E-01  0.458E-01
 -18.627  0.458E-01  0.458E-01  0.458E-01  0.458E-01
 -18.617  0.458E-01  0.458E-01  0.458E-01  0.458E-01
 -18.607  0.458E-01  0.458E-01  0.458E-01  0.458E-01
 -18.597  0.458E-01  0.458E-01  0.458E-01  0.458E-01
 -18.587  0.457E-01  0.457E-01  0.457E-01  0.457E-01
 -18.577  0.457E-01  0.457E-01  0.457E-01  0.457E-01
 -18.567  0.457E-01  0.457E-01  0.457E-01  0.457E-01
 -18.557  0.457E-01  0.457E-01  0.457E-01  0.457E-01
 -18.547  0.457E-01  0.457E-01  0.457E-01  0.457E-01
 -18.537  0.457E-01  0.457E-01  0.457E-01  0.457E-01
 -18.527  0.457E-01  0.457E-01  0.457E-01  0.457E-01
 -18.517  0.456E-01  0.456E-01  0.456E-01  0.456E-01
 -18.507  0.456E-01  0.456E-01  0.456E-01  0.456E-01
 -18.497  0.456E-01  0.456E-01  0.456E-01  0.456E-01
 -18.487  0.456E-01  0.456E-01  0.456E-01  0.456E-01
 -18.477  0.456E-01  0.456E-01  0.456E-01  0.456E-01
 -18.467  0.456E-01  0.456E-01  0.456E-01  0.456E-01
 -18.457  0.456E-01  0.456E-01  0.456E-01  0.456E-01
 -18.447  0.456E-01  0.456E-01  0.456E-01  0.456E-01
 -18.437  0.456E-01  0.456E-01  0.456E-01  0.456E-01
 -18.427  0.456E-01  0.456E-01  0.456E-01  0.456E-01
 -18.417  0.456E-01  0.456E-01  0.456E-01  0.456E-01
 -18.407  0.456E-01  0.456E-01  0.456E-01  0.456E-01
 -18.397  0.456E-01  0.456E-01  0.456E-01  0.456E-01
 -18.387  0.456E-01  0.456E-01  0.456E-01  0.456E-01
 -18.377  0.456E-01  0.456E-01  0.456E-01  0.456E-01
 -18.367  0.456E-01  0.456E-01  0.456E-01  0.456E-01
 -18.357  0.456E-01  0.456E-01  0.456E-01  0.456E-01
 -18.347  0.456E-01  0.456E-01  0.456E-01  0.456E-01
 -18.337  0.456E-01  0.456E-01  0.456E-01  0.456E-01
 -18.327  0.456E-01  0.456E-01  0.456E-01  0.456E-01
 -18.317  0.456E-01  0.456E-01  0.456E-01  0.456E-01
 -18.307  0.456E-01  0.456E-01  0.456E-01  0.456E-01
 -18.297  0.456E-01  0.456E-01  0.456E-01  0.456E-01
 -18.287  0.456E-01  0.456E-01  0.456E-01  0.456E-01
 -18.277  0.456E-01  0.456E-01  0.456E-01  0.456E-01
 -18.267  0.456E-01  0.456E-01  0.456E-01  0.456E-01
 -18.257  0.456E-01  0.456E-01  0.456E-01  0.456E-01
 -18.247  0.454E-01  0.454E-01  0.454E-01  0.454E-01
 -18.237  0.453E-01  0.453E-01  0.453E-01  0.453E-01
 -18.227  0.453E-01  0.453E-01  0.453E-01  0.453E-01
 -18.217  0.453E-01  0.453E-01  0.453E-01  0.453E-01
 -18.207  0.452E-01  0.452E-01  0.452E-01  0.452E-01
 -18.197  0.452E-01  0.452E-01  0.452E-01  0.452E-01
 -18.187  0.452E-01  0.452E-01  0.452E-01  0.452E-01
 -18.177  0.451E-01  0.451E-01  0.451E-01  0.451E-01
 -18.167  0.451E-01  0.451E-01  0.451E-01  0.451E-01
 -18.157  0.451E-01  0.451E-01  0.451E-01  0.451E-01
 -18.147  0.451E-01  0.451E-01  0.451E-01  0.451E-01
 -18.137  0.451E-01  0.451E-01  0.451E-01  0.451E-01
 -18.127  0.451E-01  0.451E-01  0.451E-01  0.451E-01
 -18.117  0.450E-01  0.450E-01  0.450E-01  0.450E-01
 -18.107  0.450E-01  0.450E-01  0.450E-01  0.450E-01
 -18.097  0.450E-01  0.450E-01  0.450E-01  0.450E-01
 -18.087  0.450E-01  0.450E-01  0.450E-01  0.450E-01
 -18.077  0.450E-01  0.450E-01  0.450E-01  0.450E-01
 -18.067  0.450E-01  0.450E-01  0.450E-01  0.450E-01
 -18.057  0.450E-01  0.450E-01  0.450E-01  0.450E-01
 -18.047  0.450E-01  0.450E-01  0.450E-01  0.450E-01
 -18.037  0.450E-01  0.450E-01  0.450E-01  0.450E-01
 -18.027  0.450E-01  0.450E-01  0.450E-01  0.450E-01
 -18.017  0.450E-01  0.450E-01  0.450E-01  0.450E-01
 -18.007  0.450E-01  0.450E-01  0.450E-01  0.450E-01
 -17.997  0.450E-01  0.450E-01  0.450E-01  0.450E-01
 -17.987  0.450E-01  0.450E-01  0.450E-01  0.450E-01
 -17.977  0.450E-01  0.450E-01  0.450E-01  0.450E-01
 -17.967  0.450E-01  0.450E-01  0.450E-01  0.450E-01
 -17.957  0.450E-01  0.450E-01  0.450E-01  0.450E-01
 -17.947  0.450E-01  0.450E-01  0.450E-01  0.450E-01
 -17.937  0.450E-01  0.450E-01  0.450E-01  0.450E-01
 -17.927  0.450E-01  0.450E-01  0.450E-01  0.450E-01
 -17.917  0.450E-01  0.450E-01  0.450E-01  0.450E-01
 -17.907  0.450E-01  0.450E-01  0.450E-01  0.450E-01
 -17.897  0.450E-01  0.450E-01  0.450E-01  0.450E-01
 -17.887  0.450E-01  0.450E-01  0.450E-01  0.450E-01
 -17.877  0.450E-01  0.450E-01  0.450E-01  0.450E-01
 -17.867  0.451E-01  0.451E-01  0.451E-01  0.451E-01
 -17.857  0.451E-01  0.451E-01  0.451E-01  0.451E-01
 -17.847  0.451E-01  0.451E-01  0.451E-01  0.451E-01
 -17.837  0.451E-01  0.451E-01  0.451E-01  0.451E-01
 -17.827  0.451E-01  0.451E-01  0.451E-01  0.451E-01
 -17.817  0.451E-01  0.451E-01  0.451E-01  0.451E-01
 -17.807  0.451E-01  0.451E-01  0.451E-01  0.451E-01
 -17.797  0.451E-01  0.451E-01  0.451E-01  0.451E-01
 -17.787  0.452E-01  0.452E-01  0.452E-01  0.452E-01
 -17.777  0.452E-01  0.452E-01  0.452E-01  0.452E-01
 -17.767  0.452E-01  0.452E-01  0.452E-01  0.452E-01
 -17.757  0.452E-01  0.452E-01  0.452E-01  0.452E-01
 -17.747  0.452E-01  0.452E-01  0.452E-01  0.452E-01
 -17.737  0.453E-01  0.453E-01  0.453E-01  0.453E-01
 -17.727  0.453E-01  0.453E-01  0.453E-01  0.453E-01
 -17.717  0.453E-01  0.453E-01  0.453E-01  0.453E-01
 -17.707  0.453E-01  0.453E-01  0.453E-01  0.453E-01
 -17.697  0.454E-01  0.454E-01  0.454E-01  0.454E-01
 -17.687  0.454E-01  0.454E-01  0.454E-01  0.454E-01
 -17.677  0.454E-01  0.454E-01  0.454E-01  0.454E-01
 -17.667  0.454E-01  0.454E-01  0.454E-01  0.454E-01
 -17.657  0.455E-01  0.455E-01  0.455E-01  0.455E-01
 -17.647  0.455E-01  0.455E-01  0.455E-01  0.455E-01
 -17.637  0.455E-01  0.455E-01  0.455E-01  0.455E-01
 -17.627  0.456E-01  0.456E-01  0.456E-01  0.456E-01
 -17.617  0.456E-01  0.456E-01  0.456E-01  0.456E-01
 -17.607  0.456E-01  0.456E-01  0.456E-01  0.456E-01
 -17.597  0.456E-01  0.456E-01  0.456E-01  0.456E-01
 -17.587  0.456E-01  0.456E-01  0.456E-01  0.456E-01
 -17.577  0.456E-01  0.456E-01  0.456E-01  0.456E-01
 -17.567  0.455E-01  0.455E-01  0.455E-01  0.455E-01
 -17.557  0.455E-01  0.455E-01  0.455E-01  0.455E-01
 -17.547  0.456E-01  0.456E-01  0.456E-01  0.456E-01
 -17.537  0.456E-01  0.456E-01  0.456E-01  0.456E-01
 -17.527  0.456E-01  0.456E-01  0.456E-01  0.456E-01
 -17.517  0.456E-01  0.456E-01  0.456E-01  0.456E-01
 -17.507  0.456E-01  0.456E-01  0.456E-01  0.456E-01
 -17.497  0.456E-01  0.456E-01  0.456E-01  0.456E-01
 -17.487  0.457E-01  0.457E-01  0.457E-01  0.457E-01
 -17.477  0.457E-01  0.457E-01  0.457E-01  0.457E-01
 -17.467  0.458E-01  0.458E-01  0.458E-01  0.458E-01
 -17.457  0.458E-01  0.458E-01  0.458E-01  0.458E-01
 -17.447  0.459E-01  0.459E-01  0.459E-01  0.459E-01
 -17.437  0.459E-01  0.459E-01  0.459E-01  0.459E-01
 -17.427  0.460E-01  0.460E-01  0.460E-01  0.460E-01
 -17.417  0.461E-01  0.461E-01  0.461E-01  0.461E-01
 -17.407  0.461E-01  0.461E-01  0.461E-01  0.461E-01
 -17.397  0.462E-01  0.462E-01  0.462E-01  0.462E-01
 -17.387  0.463E-01  0.463E-01  0.463E-01  0.463E-01
 -17.377  0.463E-01  0.463E-01  0.463E-01  0.463E-01
 -17.367  0.464E-01  0.464E-01  0.464E-01  0.464E-01
 -17.357  0.465E-01  0.465E-01  0.465E-01  0.465E-01
 -17.347  0.465E-01  0.465E-01  0.465E-01  0.465E-01
 -17.337  0.466E-01  0.466E-01  0.466E-01  0.466E-01
 -17.327  0.467E-01  0.467E-01  0.467E-01  0.467E-01
 -17.317  0.467E-01  0.467E-01  0.467E-01  0.467E-01
 -17.307  0.468E-01  0.468E-01  0.468E-01  0.468E-01
 -17.297  0.469E-01  0.469E-01  0.469E-01  0.469E-01
 -17.287  0.469E-01  0.469E-01  0.469E-01  0.469E-01
 -17.277  0.470E-01  0.470E-01  0.470E-01  0.470E-01
 -17.267  0.471E-01  0.471E-01  0.471E-01  0.471E-01
 -17.257  0.472E-01  0.472E-01  0.472E-01  0.472E-01
 -17.247  0.473E-01  0.473E-01  0.473E-01  0.473E-01
 -17.237  0.474E-01  0.474E-01  0.474E-01  0.474E-01
 -17.227  0.475E-01  0.475E-01  0.475E-01  0.475E-01
 -17.217  0.476E-01  0.476E-01  0.476E-01  0.476E-01
 -17.207  0.477E-01  0.477E-01  0.477E-01  0.477E-01
 -17.197  0.478E-01  0.478E-01  0.478E-01  0.478E-01
 -17.187  0.479E-01  0.479E-01  0.479E-01  0.479E-01
 -17.177  0.480E-01  0.480E-01  0.480E-01  0.480E-01
 -17.167  0.481E-01  0.481E-01  0.481E-01  0.481E-01
 -17.157  0.483E-01  0.483E-01  0.483E-01  0.483E-01
 -17.147  0.484E-01  0.484E-01  0.484E-01  0.484E-01
 -17.137  0.485E-01  0.485E-01  0.485E-01  0.485E-01
 -17.127  0.487E-01  0.487E-01  0.487E-01  0.487E-01
 -17.117  0.489E-01  0.489E-01  0.489E-01  0.489E-01
 -17.107  0.491E-01  0.491E-01  0.491E-01  0.491E-01
 -17.097  0.493E-01  0.493E-01  0.493E-01  0.493E-01
 -17.087  0.495E-01  0.495E-01  0.495E-01  0.495E-01
 -17.077  0.497E-01  0.497E-01  0.497E-01  0.497E-01
 -17.067  0.499E-01  0.499E-01  0.499E-01  0.499E-01
 -17.057  0.501E-01  0.501E-01  0.501E-01  0.501E-01
 -17.047  0.503E-01  0.503E-01  0.503E-01  0.503E-01
 -17.037  0.505E-01  0.505E-01  0.505E-01  0.505E-01
 -17.027  0.509E-01  0.509E-01  0.509E-01  0.509E-01
 -17.017  0.512E-01  0.512E-01  0.512E-01  0.512E-01
 -17.007  0.516E-01  0.516E-01  0.516E-01  0.516E-01
 -16.997  0.520E-01  0.520E-01  0.520E-01  0.520E-01
 -16.987  0.524E-01  0.524E-01  0.524E-01  0.524E-01
 -16.977  0.528E-01  0.528E-01  0.528E-01  0.528E-01
 -16.967  0.532E-01  0.532E-01  0.532E-01  0.532E-01
 -16.957  0.535E-01  0.536E-01  0.535E-01  0.536E-01
 -16.947  0.539E-01  0.539E-01  0.539E-01  0.539E-01
 -16.937  0.543E-01  0.543E-01  0.543E-01  0.543E-01
 -16.927  0.547E-01  0.547E-01  0.547E-01  0.547E-01
 -16.917  0.551E-01  0.551E-01  0.551E-01  0.551E-01
 -16.907  0.555E-01  0.555E-01  0.555E-01  0.555E-01
 -16.897  0.559E-01  0.559E-01  0.559E-01  0.559E-01
 -16.887  0.564E-01  0.564E-01  0.564E-01  0.564E-01
 -16.877  0.568E-01  0.568E-01  0.568E-01  0.568E-01
 -16.867  0.572E-01  0.572E-01  0.572E-01  0.572E-01
 -16.857  0.577E-01  0.577E-01  0.577E-01  0.577E-01
 -16.847  0.581E-01  0.581E-01  0.581E-01  0.581E-01
 -16.837  0.585E-01  0.585E-01  0.585E-01  0.585E-01
 -16.827  0.590E-01  0.590E-01  0.590E-01  0.590E-01
 -16.817  0.595E-01  0.595E-01  0.595E-01  0.595E-01
 -16.807  0.600E-01  0.600E-01  0.600E-01  0.600E-01
 -16.797  0.604E-01  0.604E-01  0.604E-01  0.604E-01
 -16.787  0.609E-01  0.609E-01  0.609E-01  0.609E-01
 -16.777  0.951E-01  0.951E-01  0.951E-01  0.951E-01
 -16.767  0.921E-01  0.921E-01  0.921E-01  0.921E-01
 -16.757  0.891E-01  0.891E-01  0.891E-01  0.891E-01
 -16.747  0.861E-01  0.861E-01  0.861E-01  0.861E-01
 -16.737  0.830E-01  0.830E-01  0.830E-01  0.830E-01
 -16.727  0.799E-01  0.799E-01  0.799E-01  0.799E-01
 -16.717  0.768E-01  0.768E-01  0.768E-01  0.768E-01
 -16.707  0.738E-01  0.738E-01  0.738E-01  0.738E-01
 -16.697  0.709E-01  0.709E-01  0.709E-01  0.709E-01
 -16.687  0.679E-01  0.679E-01  0.679E-01  0.679E-01
 -16.677  0.649E-01  0.649E-01  0.649E-01  0.649E-01
 -16.667  0.620E-01  0.620E-01  0.620E-01  0.620E-01
 -16.657  0.589E-01  0.589E-01  0.589E-01  0.589E-01
 -16.647  0.559E-01  0.559E-01  0.559E-01  0.559E-01
 -16.637  0.528E-01  0.528E-01  0.528E-01  0.528E-01
 -16.627  0.521E-01  0.521E-01  0.521E-01  0.521E-01
 -16.617  0.515E-01  0.515E-01  0.515E-01  0.515E-01
 -16.607  0.510E-01  0.510E-01  0.510E-01  0.510E-01
 -16.597  0.505E-01  0.505E-01  0.505E-01  0.505E-01
 -16.587  0.499E-01  0.499E-01  0.499E-01  0.499E-01
 -16.577  0.494E-01  0.494E-01  0.494E-01  0.494E-01
 -16.567  0.489E-01  0.489E-01  0.489E-01  0.489E-01
 -16.557  0.123E+00  0.123E+00  0.123E+00  0.123E+00
 -16.547  0.928E-01  0.928E-01  0.928E-01  0.928E-01
 -16.537  0.609E-01  0.609E-01  0.609E-01  0.609E-01
 -16.527  0.399E-01  0.399E-01  0.399E-01  0.399E-01
 -16.517  0.395E-01  0.394E-01  0.395E-01  0.394E-01
 -16.507  0.390E-01  0.390E-01  0.390E-01  0.390E-01
 -16.497  0.386E-01  0.386E-01  0.386E-01  0.386E-01
 -16.487  0.381E-01  0.381E-01  0.381E-01  0.381E-01
 -16.477  0.377E-01  0.377E-01  0.377E-01  0.377E-01
 -16.467  0.373E-01  0.373E-01  0.373E-01  0.373E-01
 -16.457  0.368E-01  0.368E-01  0.368E-01  0.368E-01
 -16.447  0.364E-01  0.364E-01  0.364E-01  0.364E-01
 -16.437  0.359E-01  0.359E-01  0.359E-01  0.359E-01
 -16.427  0.355E-01  0.355E-01  0.355E-01  0.355E-01
 -16.417  0.350E-01  0.350E-01  0.350E-01  0.350E-01
 -16.407  0.346E-01  0.346E-01  0.346E-01  0.346E-01
 -16.397  0.341E-01  0.341E-01  0.341E-01  0.341E-01
 -16.387  0.337E-01  0.337E-01  0.337E-01  0.337E-01
 -16.377  0.332E-01  0.332E-01  0.332E-01  0.332E-01
 -16.367  0.328E-01  0.328E-01  0.328E-01  0.328E-01
 -16.357  0.323E-01  0.323E-01  0.323E-01  0.323E-01
 -16.347  0.319E-01  0.319E-01  0.319E-01  0.319E-01
 -16.337  0.314E-01  0.314E-01  0.314E-01  0.314E-01
 -16.327  0.310E-01  0.310E-01  0.310E-01  0.310E-01
 -16.317  0.305E-01  0.305E-01  0.305E-01  0.305E-01
 -16.307  0.301E-01  0.301E-01  0.301E-01  0.301E-01
 -16.297  0.296E-01  0.296E-01  0.296E-01  0.296E-01
 -16.287  0.291E-01  0.291E-01  0.291E-01  0.291E-01
 -16.277  0.287E-01  0.287E-01  0.287E-01  0.287E-01
 -16.267  0.282E-01  0.282E-01  0.282E-01  0.282E-01
 -16.257  0.278E-01  0.278E-01  0.278E-01  0.278E-01
 -16.247  0.273E-01  0.273E-01  0.273E-01  0.273E-01
 -16.237  0.268E-01  0.268E-01  0.268E-01  0.268E-01
 -16.227  0.264E-01  0.264E-01  0.264E-01  0.264E-01
 -16.217  0.259E-01  0.259E-01  0.259E-01  0.259E-01
 -16.207  0.290E-01  0.290E-01  0.290E-01  0.290E-01
 -16.197  0.328E-01  0.328E-01  0.328E-01  0.328E-01
 -16.187  0.368E-01  0.368E-01  0.368E-01  0.368E-01
 -16.177  0.406E-01  0.406E-01  0.406E-01  0.406E-01
 -16.167  0.450E-01  0.450E-01  0.450E-01  0.450E-01
 -16.157  0.493E-01  0.493E-01  0.493E-01  0.493E-01
 -16.147  0.535E-01  0.535E-01  0.535E-01  0.535E-01
 -16.137  0.251E-01  0.251E-01  0.251E-01  0.251E-01
 -16.127  0.248E-01  0.248E-01  0.248E-01  0.248E-01
 -16.117  0.245E-01  0.245E-01  0.245E-01  0.245E-01
 -16.107  0.243E-01  0.243E-01  0.243E-01  0.243E-01
 -16.097  0.240E-01  0.240E-01  0.240E-01  0.240E-01
 -16.087  0.237E-01  0.237E-01  0.237E-01  0.237E-01
 -16.077  0.234E-01  0.234E-01  0.234E-01  0.234E-01
 -16.067  0.232E-01  0.232E-01  0.232E-01  0.232E-01
 -16.057  0.229E-01  0.229E-01  0.229E-01  0.229E-01
 -16.047  0.226E-01  0.226E-01  0.226E-01  0.226E-01
 -16.037  0.224E-01  0.224E-01  0.224E-01  0.224E-01
 -16.027  0.221E-01  0.221E-01  0.221E-01  0.221E-01
 -16.017  0.218E-01  0.218E-01  0.218E-01  0.218E-01
 -16.007  0.215E-01  0.215E-01  0.215E-01  0.215E-01
 -15.997  0.213E-01  0.213E-01  0.213E-01  0.213E-01
 -15.987  0.210E-01  0.210E-01  0.210E-01  0.210E-01
 -15.977  0.207E-01  0.207E-01  0.207E-01  0.207E-01
 -15.967  0.204E-01  0.204E-01  0.204E-01  0.204E-01
 -15.957  0.202E-01  0.202E-01  0.202E-01  0.202E-01
 -15.947  0.199E-01  0.199E-01  0.199E-01  0.199E-01
 -15.937  0.196E-01  0.196E-01  0.196E-01  0.196E-01
 -15.927  0.194E-01  0.194E-01  0.194E-01  0.194E-01
 -15.917  0.191E-01  0.191E-01  0.191E-01  0.191E-01
 -15.907  0.188E-01  0.188E-01  0.188E-01  0.188E-01
 -15.897  0.185E-01  0.185E-01  0.185E-01  0.185E-01
 -15.887  0.183E-01  0.183E-01  0.183E-01  0.183E-01
 -15.877  0.180E-01  0.180E-01  0.180E-01  0.180E-01
 -15.867  0.177E-01  0.177E-01  0.177E-01  0.177E-01
 -15.857  0.174E-01  0.174E-01  0.174E-01  0.174E-01
 -15.847  0.172E-01  0.172E-01  0.172E-01  0.172E-01
 -15.837  0.169E-01  0.169E-01  0.169E-01  0.169E-01
 -15.827  0.166E-01  0.166E-01  0.166E-01  0.166E-01
 -15.817  0.163E-01  0.163E-01  0.163E-01  0.163E-01
 -15.807  0.161E-01  0.161E-01  0.161E-01  0.161E-01
 -15.797  0.158E-01  0.158E-01  0.158E-01  0.158E-01
 -15.787  0.155E-01  0.155E-01  0.155E-01  0.155E-01
 -15.777  0.152E-01  0.152E-01  0.152E-01  0.152E-01
 -15.767  0.150E-01  0.150E-01  0.150E-01  0.150E-01
 -15.757  0.147E-01  0.147E-01  0.147E-01  0.147E-01
 -15.747  0.144E-01  0.144E-01  0.144E-01  0.144E-01
 -15.737  0.141E-01  0.141E-01  0.141E-01  0.141E-01
 -15.727  0.139E-01  0.139E-01  0.139E-01  0.139E-01
 -15.717  0.136E-01  0.136E-01  0.136E-01  0.136E-01
 -15.707  0.133E-01  0.133E-01  0.133E-01  0.133E-01
 -15.697  0.130E-01  0.130E-01  0.130E-01  0.130E-01
 -15.687  0.130E-01  0.130E-01  0.130E-01  0.130E-01
 -15.677  0.134E-01  0.134E-01  0.134E-01  0.134E-01
 -15.667  0.138E-01  0.138E-01  0.138E-01  0.138E-01
 -15.657  0.142E-01  0.142E-01  0.142E-01  0.142E-01
 -15.647  0.146E-01  0.146E-01  0.146E-01  0.146E-01
 -15.637  0.150E-01  0.150E-01  0.150E-01  0.150E-01
 -15.627  0.154E-01  0.154E-01  0.154E-01  0.154E-01
 -15.617  0.158E-01  0.158E-01  0.158E-01  0.158E-01
 -15.607  0.165E-01  0.165E-01  0.165E-01  0.165E-01
 -15.597  0.173E-01  0.173E-01  0.173E-01  0.173E-01
 -15.587  0.182E-01  0.182E-01  0.182E-01  0.182E-01
 -15.577  0.190E-01  0.190E-01  0.190E-01  0.190E-01
 -15.567  0.198E-01  0.198E-01  0.198E-01  0.198E-01
 -15.557  0.206E-01  0.206E-01  0.206E-01  0.206E-01
 -15.547  0.214E-01  0.214E-01  0.214E-01  0.214E-01
 -15.537  0.223E-01  0.223E-01  0.223E-01  0.223E-01
 -15.527  0.231E-01  0.231E-01  0.231E-01  0.231E-01
 -15.517  0.136E-01  0.136E-01  0.136E-01  0.136E-01
 -15.507  0.146E-01  0.146E-01  0.146E-01  0.146E-01
 -15.497  0.167E-01  0.167E-01  0.167E-01  0.167E-01
 -15.487  0.188E-01  0.188E-01  0.188E-01  0.188E-01
 -15.477  0.210E-01  0.210E-01  0.210E-01  0.210E-01
 -15.467  0.232E-01  0.232E-01  0.232E-01  0.232E-01
 -15.457  0.255E-01  0.255E-01  0.255E-01  0.255E-01
 -15.447  0.279E-01  0.279E-01  0.279E-01  0.279E-01
 -15.437  0.303E-01  0.303E-01  0.303E-01  0.303E-01
 -15.427  0.327E-01  0.327E-01  0.327E-01  0.327E-01
 -15.417  0.352E-01  0.352E-01  0.352E-01  0.352E-01
 -15.407  0.378E-01  0.378E-01  0.378E-01  0.378E-01
 -15.397  0.191E-01  0.191E-01  0.191E-01  0.191E-01
 -15.387  0.192E-01  0.192E-01  0.192E-01  0.192E-01
 -15.377  0.193E-01  0.193E-01  0.193E-01  0.193E-01
 -15.367  0.194E-01  0.194E-01  0.194E-01  0.194E-01
 -15.357  0.196E-01  0.196E-01  0.196E-01  0.196E-01
 -15.347  0.197E-01  0.197E-01  0.197E-01  0.197E-01
 -15.337  0.198E-01  0.198E-01  0.198E-01  0.198E-01
 -15.327  0.199E-01  0.199E-01  0.199E-01  0.199E-01
 -15.317  0.200E-01  0.200E-01  0.200E-01  0.200E-01
 -15.307  0.201E-01  0.201E-01  0.201E-01  0.201E-01
 -15.297  0.203E-01  0.203E-01  0.203E-01  0.203E-01
 -15.287  0.204E-01  0.204E-01  0.204E-01  0.204E-01
 -15.277  0.205E-01  0.205E-01  0.205E-01  0.205E-01
 -15.267  0.206E-01  0.206E-01  0.206E-01  0.206E-01
 -15.257  0.208E-01  0.208E-01  0.208E-01  0.208E-01
 -15.247  0.209E-01  0.209E-01  0.209E-01  0.209E-01
 -15.237  0.211E-01  0.211E-01  0.211E-01  0.211E-01
 -15.227  0.212E-01  0.212E-01  0.212E-01  0.212E-01
 -15.217  0.213E-01  0.213E-01  0.213E-01  0.213E-01
 -15.207  0.132E+00  0.132E+00  0.132E+00  0.132E+00
 -15.197  0.220E-01  0.220E-01  0.220E-01  0.220E-01
 -15.187  0.220E-01  0.220E-01  0.220E-01  0.220E-01
 -15.177  0.220E-01  0.220E-01  0.220E-01  0.220E-01
 -15.167  0.219E-01  0.219E-01  0.219E-01  0.219E-01
 -15.157  0.219E-01  0.219E-01  0.219E-01  0.219E-01
 -15.147  0.219E-01  0.219E-01  0.219E-01  0.219E-01
 -15.137  0.218E-01  0.218E-01  0.218E-01  0.218E-01
 -15.127  0.218E-01  0.218E-01  0.218E-01  0.218E-01
 -15.117  0.218E-01  0.218E-01  0.218E-01  0.218E-01
 -15.107  0.217E-01  0.217E-01  0.217E-01  0.217E-01
 -15.097  0.217E-01  0.217E-01  0.217E-01  0.217E-01
 -15.087  0.217E-01  0.217E-01  0.217E-01  0.217E-01
 -15.077  0.216E-01  0.216E-01  0.216E-01  0.216E-01
 -15.067  0.216E-01  0.216E-01  0.216E-01  0.216E-01
 -15.057  0.216E-01  0.216E-01  0.216E-01  0.216E-01
 -15.047  0.215E-01  0.215E-01  0.215E-01  0.215E-01
 -15.037  0.215E-01  0.215E-01  0.215E-01  0.215E-01
 -15.027  0.215E-01  0.215E-01  0.215E-01  0.215E-01
 -15.017  0.215E-01  0.215E-01  0.215E-01  0.215E-01
 -15.007  0.215E-01  0.215E-01  0.215E-01  0.215E-01
 -14.997  0.216E-01  0.216E-01  0.216E-01  0.216E-01
 -14.987  0.216E-01  0.216E-01  0.216E-01  0.216E-01
 -14.977  0.216E-01  0.216E-01  0.216E-01  0.216E-01
 -14.967  0.216E-01  0.216E-01  0.216E-01  0.216E-01
 -14.957  0.216E-01  0.216E-01  0.216E-01  0.216E-01
 -14.947  0.221E-01  0.221E-01  0.221E-01  0.221E-01
 -14.937  0.227E-01  0.227E-01  0.227E-01  0.227E-01
 -14.927  0.233E-01  0.233E-01  0.233E-01  0.233E-01
 -14.917  0.239E-01  0.239E-01  0.239E-01  0.239E-01
 -14.907  0.245E-01  0.245E-01  0.245E-01  0.245E-01
 -14.897  0.251E-01  0.251E-01  0.251E-01  0.251E-01
 -14.887  0.256E-01  0.256E-01  0.256E-01  0.256E-01
 -14.877  0.262E-01  0.262E-01  0.262E-01  0.262E-01
 -14.867  0.268E-01  0.268E-01  0.268E-01  0.268E-01
 -14.857  0.274E-01  0.274E-01  0.274E-01  0.274E-01
 -14.847  0.280E-01  0.280E-01  0.280E-01  0.280E-01
 -14.837  0.799E-01  0.798E-01  0.799E-01  0.798E-01
 -14.827  0.480E-01  0.480E-01  0.480E-01  0.480E-01
 -14.817  0.311E-01  0.311E-01  0.311E-01  0.311E-01
 -14.807  0.318E-01  0.318E-01  0.318E-01  0.318E-01
 -14.797  0.325E-01  0.325E-01  0.325E-01  0.325E-01
 -14.787  0.332E-01  0.332E-01  0.332E-01  0.332E-01
 -14.777  0.340E-01  0.340E-01  0.340E-01  0.340E-01
 -14.767  0.347E-01  0.347E-01  0.347E-01  0.347E-01
 -14.757  0.354E-01  0.354E-01  0.354E-01  0.354E-01
 -14.747  0.362E-01  0.362E-01  0.362E-01  0.362E-01
 -14.737  0.369E-01  0.369E-01  0.369E-01  0.369E-01
 -14.727  0.377E-01  0.377E-01  0.377E-01  0.377E-01
 -14.717  0.385E-01  0.385E-01  0.385E-01  0.385E-01
 -14.707  0.392E-01  0.392E-01  0.392E-01  0.392E-01
 -14.697  0.400E-01  0.400E-01  0.400E-01  0.400E-01
 -14.687  0.408E-01  0.408E-01  0.408E-01  0.408E-01
 -14.677  0.416E-01  0.416E-01  0.416E-01  0.416E-01
 -14.667  0.424E-01  0.424E-01  0.424E-01  0.424E-01
 -14.657  0.433E-01  0.433E-01  0.433E-01  0.433E-01
 -14.647  0.443E-01  0.443E-01  0.443E-01  0.443E-01
 -14.637  0.452E-01  0.452E-01  0.452E-01  0.452E-01
 -14.627  0.461E-01  0.461E-01  0.461E-01  0.461E-01
 -14.617  0.471E-01  0.471E-01  0.471E-01  0.471E-01
 -14.607  0.480E-01  0.480E-01  0.480E-01  0.480E-01
 -14.597  0.490E-01  0.490E-01  0.490E-01  0.490E-01
 -14.587  0.500E-01  0.500E-01  0.500E-01  0.500E-01
 -14.577  0.510E-01  0.510E-01  0.510E-01  0.510E-01
 -14.567  0.349E-01  0.349E-01  0.349E-01  0.349E-01
 -14.557  0.348E-01  0.348E-01  0.348E-01  0.348E-01
 -14.547  0.346E-01  0.346E-01  0.346E-01  0.346E-01
 -14.537  0.345E-01  0.345E-01  0.345E-01  0.345E-01
 -14.527  0.343E-01  0.343E-01  0.343E-01  0.343E-01
 -14.517  0.342E-01  0.342E-01  0.342E-01  0.342E-01
 -14.507  0.340E-01  0.340E-01  0.340E-01  0.340E-01
 -14.497  0.339E-01  0.339E-01  0.339E-01  0.339E-01
 -14.487  0.337E-01  0.337E-01  0.337E-01  0.337E-01
 -14.477  0.335E-01  0.335E-01  0.335E-01  0.335E-01
 -14.467  0.334E-01  0.334E-01  0.334E-01  0.334E-01
 -14.457  0.332E-01  0.332E-01  0.332E-01  0.332E-01
 -14.447  0.331E-01  0.331E-01  0.331E-01  0.331E-01
 -14.437  0.329E-01  0.329E-01  0.329E-01  0.329E-01
 -14.427  0.328E-01  0.328E-01  0.328E-01  0.328E-01
 -14.417  0.326E-01  0.326E-01  0.326E-01  0.326E-01
 -14.407  0.324E-01  0.324E-01  0.324E-01  0.324E-01
 -14.397  0.323E-01  0.323E-01  0.323E-01  0.323E-01
 -14.387  0.321E-01  0.321E-01  0.321E-01  0.321E-01
 -14.377  0.319E-01  0.319E-01  0.319E-01  0.319E-01
 -14.367  0.318E-01  0.318E-01  0.318E-01  0.318E-01
 -14.357  0.316E-01  0.316E-01  0.316E-01  0.316E-01
 -14.347  0.315E-01  0.315E-01  0.315E-01  0.315E-01
 -14.337  0.313E-01  0.313E-01  0.313E-01  0.313E-01
 -14.327  0.311E-01  0.311E-01  0.311E-01  0.311E-01
 -14.317  0.310E-01  0.310E-01  0.310E-01  0.310E-01
 -14.307  0.308E-01  0.308E-01  0.308E-01  0.308E-01
 -14.297  0.307E-01  0.307E-01  0.307E-01  0.307E-01
 -14.287  0.305E-01  0.305E-01  0.305E-01  0.305E-01
 -14.277  0.304E-01  0.304E-01  0.304E-01  0.304E-01
 -14.267  0.302E-01  0.302E-01  0.302E-01  0.302E-01
 -14.257  0.301E-01  0.301E-01  0.301E-01  0.301E-01
 -14.247  0.300E-01  0.300E-01  0.300E-01  0.300E-01
 -14.237  0.298E-01  0.298E-01  0.298E-01  0.298E-01
 -14.227  0.297E-01  0.297E-01  0.297E-01  0.297E-01
 -14.217  0.295E-01  0.295E-01  0.295E-01  0.295E-01
 -14.207  0.294E-01  0.294E-01  0.294E-01  0.294E-01
 -14.197  0.292E-01  0.292E-01  0.292E-01  0.292E-01
 -14.187  0.291E-01  0.291E-01  0.291E-01  0.291E-01
 -14.177  0.289E-01  0.289E-01  0.289E-01  0.289E-01
 -14.167  0.288E-01  0.288E-01  0.288E-01  0.288E-01
 -14.157  0.286E-01  0.286E-01  0.286E-01  0.286E-01
 -14.147  0.285E-01  0.285E-01  0.285E-01  0.285E-01
 -14.137  0.283E-01  0.283E-01  0.283E-01  0.283E-01
 -14.127  0.282E-01  0.282E-01  0.282E-01  0.282E-01
 -14.117  0.280E-01  0.280E-01  0.280E-01  0.280E-01
 -14.107  0.278E-01  0.278E-01  0.278E-01  0.278E-01
 -14.097  0.277E-01  0.277E-01  0.277E-01  0.277E-01
 -14.087  0.275E-01  0.275E-01  0.275E-01  0.275E-01
 -14.077  0.274E-01  0.274E-01  0.274E-01  0.274E-01
 -14.067  0.272E-01  0.272E-01  0.272E-01  0.272E-01
 -14.057  0.271E-01  0.271E-01  0.271E-01  0.271E-01
 -14.047  0.269E-01  0.269E-01  0.269E-01  0.269E-01
 -14.037  0.267E-01  0.267E-01  0.267E-01  0.267E-01
 -14.027  0.266E-01  0.266E-01  0.266E-01  0.266E-01
 -14.017  0.265E-01  0.265E-01  0.265E-01  0.265E-01
 -14.007  0.265E-01  0.265E-01  0.265E-01  0.265E-01
 -13.997  0.264E-01  0.264E-01  0.264E-01  0.264E-01
 -13.987  0.264E-01  0.264E-01  0.264E-01  0.264E-01
 -13.977  0.263E-01  0.263E-01  0.263E-01  0.263E-01
 -13.967  0.263E-01  0.263E-01  0.263E-01  0.263E-01
 -13.957  0.262E-01  0.262E-01  0.262E-01  0.262E-01
 -13.947  0.262E-01  0.262E-01  0.262E-01  0.262E-01
 -13.937  0.261E-01  0.261E-01  0.261E-01  0.261E-01
 -13.927  0.261E-01  0.261E-01  0.261E-01  0.261E-01
 -13.917  0.260E-01  0.260E-01  0.260E-01  0.260E-01
 -13.907  0.260E-01  0.260E-01  0.260E-01  0.260E-01
 -13.897  0.259E-01  0.259E-01  0.259E-01  0.259E-01
 -13.887  0.259E-01  0.259E-01  0.259E-01  0.259E-01
 -13.877  0.258E-01  0.258E-01  0.258E-01  0.258E-01
 -13.867  0.258E-01  0.258E-01  0.258E-01  0.258E-01
 -13.857  0.257E-01  0.257E-01  0.257E-01  0.257E-01
 -13.847  0.257E-01  0.257E-01  0.257E-01  0.257E-01
 -13.837  0.256E-01  0.256E-01  0.256E-01  0.256E-01
 -13.827  0.256E-01  0.256E-01  0.256E-01  0.256E-01
 -13.817  0.255E-01  0.255E-01  0.255E-01  0.255E-01
 -13.807  0.254E-01  0.254E-01  0.254E-01  0.254E-01
 -13.797  0.254E-01  0.254E-01  0.254E-01  0.254E-01
 -13.787  0.253E-01  0.253E-01  0.253E-01  0.253E-01
 -13.777  0.253E-01  0.253E-01  0.253E-01  0.253E-01
 -13.767  0.252E-01  0.252E-01  0.252E-01  0.252E-01
 -13.757  0.252E-01  0.252E-01  0.252E-01  0.252E-01
 -13.747  0.251E-01  0.251E-01  0.251E-01  0.251E-01
 -13.737  0.250E-01  0.250E-01  0.250E-01  0.250E-01
 -13.727  0.250E-01  0.250E-01  0.250E-01  0.250E-01
 -13.717  0.249E-01  0.249E-01  0.249E-01  0.249E-01
 -13.707  0.249E-01  0.249E-01  0.249E-01  0.249E-01
 -13.697  0.248E-01  0.248E-01  0.248E-01  0.248E-01
 -13.687  0.247E-01  0.247E-01  0.247E-01  0.247E-01
 -13.677  0.247E-01  0.247E-01  0.247E-01  0.247E-01
 -13.667  0.246E-01  0.246E-01  0.246E-01  0.246E-01
 -13.657  0.246E-01  0.246E-01  0.246E-01  0.246E-01
 -13.647  0.245E-01  0.245E-01  0.245E-01  0.245E-01
 -13.637  0.244E-01  0.244E-01  0.244E-01  0.244E-01
 -13.627  0.244E-01  0.244E-01  0.244E-01  0.244E-01
 -13.617  0.243E-01  0.243E-01  0.243E-01  0.243E-01
 -13.607  0.242E-01  0.242E-01  0.242E-01  0.242E-01
 -13.597  0.242E-01  0.242E-01  0.242E-01  0.242E-01
 -13.587  0.241E-01  0.241E-01  0.241E-01  0.241E-01
 -13.577  0.240E-01  0.240E-01  0.240E-01  0.240E-01
 -13.567  0.226E-01  0.226E-01  0.226E-01  0.226E-01
 -13.557  0.226E-01  0.226E-01  0.226E-01  0.226E-01
 -13.547  0.226E-01  0.226E-01  0.226E-01  0.226E-01
 -13.537  0.225E-01  0.225E-01  0.225E-01  0.225E-01
 -13.527  0.225E-01  0.225E-01  0.225E-01  0.225E-01
 -13.517  0.225E-01  0.225E-01  0.225E-01  0.225E-01
 -13.507  0.225E-01  0.225E-01  0.225E-01  0.225E-01
 -13.497  0.224E-01  0.224E-01  0.224E-01  0.224E-01
 -13.487  0.224E-01  0.224E-01  0.224E-01  0.224E-01
 -13.477  0.224E-01  0.224E-01  0.224E-01  0.224E-01
 -13.467  0.223E-01  0.223E-01  0.223E-01  0.223E-01
 -13.457  0.223E-01  0.223E-01  0.223E-01  0.223E-01
 -13.447  0.223E-01  0.223E-01  0.223E-01  0.223E-01
 -13.437  0.222E-01  0.222E-01  0.222E-01  0.222E-01
 -13.427  0.222E-01  0.222E-01  0.222E-01  0.222E-01
 -13.417  0.222E-01  0.222E-01  0.222E-01  0.222E-01
 -13.407  0.221E-01  0.221E-01  0.221E-01  0.221E-01
 -13.397  0.221E-01  0.221E-01  0.221E-01  0.221E-01
 -13.387  0.221E-01  0.221E-01  0.221E-01  0.221E-01
 -13.377  0.220E-01  0.220E-01  0.220E-01  0.220E-01
 -13.367  0.220E-01  0.220E-01  0.220E-01  0.220E-01
 -13.357  0.220E-01  0.220E-01  0.220E-01  0.220E-01
 -13.347  0.219E-01  0.219E-01  0.219E-01  0.219E-01
 -13.337  0.219E-01  0.219E-01  0.219E-01  0.219E-01
 -13.327  0.218E-01  0.218E-01  0.218E-01  0.218E-01
 -13.317  0.218E-01  0.218E-01  0.218E-01  0.218E-01
 -13.307  0.218E-01  0.218E-01  0.218E-01  0.218E-01
 -13.297  0.217E-01  0.217E-01  0.217E-01  0.217E-01
 -13.287  0.217E-01  0.217E-01  0.217E-01  0.217E-01
 -13.277  0.217E-01  0.217E-01  0.217E-01  0.217E-01
 -13.267  0.216E-01  0.216E-01  0.216E-01  0.216E-01
 -13.257  0.216E-01  0.216E-01  0.216E-01  0.216E-01
 -13.247  0.216E-01  0.216E-01  0.216E-01  0.216E-01
 -13.237  0.215E-01  0.215E-01  0.215E-01  0.215E-01
 -13.227  0.215E-01  0.215E-01  0.215E-01  0.215E-01
 -13.217  0.214E-01  0.214E-01  0.214E-01  0.214E-01
 -13.207  0.214E-01  0.214E-01  0.214E-01  0.214E-01
 -13.197  0.214E-01  0.214E-01  0.214E-01  0.214E-01
 -13.187  0.213E-01  0.213E-01  0.213E-01  0.213E-01
 -13.177  0.212E-01  0.212E-01  0.212E-01  0.212E-01
 -13.167  0.211E-01  0.211E-01  0.211E-01  0.211E-01
 -13.157  0.210E-01  0.210E-01  0.210E-01  0.210E-01
 -13.147  0.210E-01  0.210E-01  0.210E-01  0.210E-01
 -13.137  0.209E-01  0.209E-01  0.209E-01  0.209E-01
 -13.127  0.208E-01  0.208E-01  0.208E-01  0.208E-01
 -13.117  0.207E-01  0.207E-01  0.207E-01  0.207E-01
 -13.107  0.206E-01  0.206E-01  0.206E-01  0.206E-01
 -13.097  0.205E-01  0.205E-01  0.205E-01  0.205E-01
 -13.087  0.204E-01  0.204E-01  0.204E-01  0.204E-01
 -13.077  0.204E-01  0.204E-01  0.204E-01  0.204E-01
 -13.067  0.203E-01  0.203E-01  0.203E-01  0.203E-01
 -13.057  0.202E-01  0.202E-01  0.202E-01  0.202E-01
 -13.047  0.201E-01  0.201E-01  0.201E-01  0.201E-01
 -13.037  0.200E-01  0.200E-01  0.200E-01  0.200E-01
 -13.027  0.199E-01  0.199E-01  0.199E-01  0.199E-01
 -13.017  0.199E-01  0.199E-01  0.199E-01  0.199E-01
 -13.007  0.198E-01  0.198E-01  0.198E-01  0.198E-01
 -12.997  0.197E-01  0.197E-01  0.197E-01  0.197E-01
 -12.987  0.196E-01  0.196E-01  0.196E-01  0.196E-01
 -12.977  0.195E-01  0.195E-01  0.195E-01  0.195E-01
 -12.967  0.194E-01  0.194E-01  0.194E-01  0.194E-01
 -12.957  0.194E-01  0.194E-01  0.194E-01  0.194E-01
 -12.947  0.193E-01  0.193E-01  0.193E-01  0.193E-01
 -12.937  0.192E-01  0.192E-01  0.192E-01  0.192E-01
 -12.927  0.191E-01  0.191E-01  0.191E-01  0.191E-01
 -12.917  0.190E-01  0.190E-01  0.190E-01  0.190E-01
 -12.907  0.190E-01  0.190E-01  0.190E-01  0.190E-01
 -12.897  0.189E-01  0.189E-01  0.189E-01  0.189E-01
 -12.887  0.189E-01  0.189E-01  0.189E-01  0.189E-01
 -12.877  0.189E-01  0.189E-01  0.189E-01  0.189E-01
 -12.867  0.189E-01  0.189E-01  0.189E-01  0.189E-01
 -12.857  0.189E-01  0.189E-01  0.189E-01  0.189E-01
 -12.847  0.189E-01  0.189E-01  0.189E-01  0.189E-01
 -12.837  0.189E-01  0.189E-01  0.189E-01  0.189E-01
 -12.827  0.189E-01  0.189E-01  0.189E-01  0.189E-01
 -12.817  0.190E-01  0.190E-01  0.190E-01  0.190E-01
 -12.807  0.190E-01  0.190E-01  0.190E-01  0.190E-01
 -12.797  0.190E-01  0.190E-01  0.190E-01  0.190E-01
 -12.787  0.190E-01  0.190E-01  0.190E-01  0.190E-01
 -12.777  0.190E-01  0.190E-01  0.190E-01  0.190E-01
 -12.767  0.191E-01  0.191E-01  0.191E-01  0.191E-01
 -12.757  0.191E-01  0.191E-01  0.191E-01  0.191E-01
 -12.747  0.191E-01  0.191E-01  0.191E-01  0.191E-01
 -12.737  0.192E-01  0.192E-01  0.192E-01  0.192E-01
 -12.727  0.192E-01  0.192E-01  0.192E-01  0.192E-01
 -12.717  0.193E-01  0.193E-01  0.193E-01  0.193E-01
 -12.707  0.193E-01  0.193E-01  0.193E-01  0.193E-01
 -12.697  0.194E-01  0.194E-01  0.194E-01  0.194E-01
 -12.687  0.195E-01  0.195E-01  0.195E-01  0.195E-01
 -12.677  0.190E-01  0.190E-01  0.190E-01  0.190E-01
 -12.667  0.190E-01  0.190E-01  0.190E-01  0.190E-01
 -12.657  0.190E-01  0.190E-01  0.190E-01  0.190E-01
 -12.647  0.190E-01  0.190E-01  0.190E-01  0.190E-01
 -12.637  0.189E-01  0.189E-01  0.189E-01  0.189E-01
 -12.627  0.189E-01  0.189E-01  0.189E-01  0.189E-01
 -12.617  0.189E-01  0.189E-01  0.189E-01  0.189E-01
 -12.607  0.189E-01  0.189E-01  0.189E-01  0.189E-01
 -12.597  0.188E-01  0.188E-01  0.188E-01  0.188E-01
 -12.587  0.188E-01  0.188E-01  0.188E-01  0.188E-01
 -12.577  0.188E-01  0.188E-01  0.188E-01  0.188E-01
 -12.567  0.188E-01  0.188E-01  0.188E-01  0.188E-01
 -12.557  0.188E-01  0.188E-01  0.188E-01  0.188E-01
 -12.547  0.187E-01  0.187E-01  0.187E-01  0.187E-01
 -12.537  0.187E-01  0.187E-01  0.187E-01  0.187E-01
 -12.527  0.187E-01  0.187E-01  0.187E-01  0.187E-01
 -12.517  0.187E-01  0.187E-01  0.187E-01  0.187E-01
 -12.507  0.187E-01  0.187E-01  0.187E-01  0.187E-01
 -12.497  0.186E-01  0.186E-01  0.186E-01  0.186E-01
 -12.487  0.186E-01  0.186E-01  0.186E-01  0.186E-01
 -12.477  0.186E-01  0.186E-01  0.186E-01  0.186E-01
 -12.467  0.186E-01  0.186E-01  0.186E-01  0.186E-01
 -12.457  0.186E-01  0.186E-01  0.186E-01  0.186E-01
 -12.447  0.185E-01  0.185E-01  0.185E-01  0.185E-01
 -12.437  0.185E-01  0.185E-01  0.185E-01  0.185E-01
 -12.427  0.185E-01  0.185E-01  0.185E-01  0.185E-01
 -12.417  0.185E-01  0.185E-01  0.185E-01  0.185E-01
 -12.407  0.185E-01  0.185E-01  0.185E-01  0.185E-01
 -12.397  0.185E-01  0.185E-01  0.185E-01  0.185E-01
 -12.387  0.184E-01  0.184E-01  0.184E-01  0.184E-01
 -12.377  0.184E-01  0.184E-01  0.184E-01  0.184E-01
 -12.367  0.184E-01  0.184E-01  0.184E-01  0.184E-01
 -12.357  0.184E-01  0.184E-01  0.184E-01  0.184E-01
 -12.347  0.184E-01  0.184E-01  0.184E-01  0.184E-01
 -12.337  0.176E-01  0.176E-01  0.176E-01  0.176E-01
 -12.327  0.177E-01  0.177E-01  0.177E-01  0.177E-01
 -12.317  0.177E-01  0.177E-01  0.177E-01  0.177E-01
 -12.307  0.177E-01  0.177E-01  0.177E-01  0.177E-01
 -12.297  0.177E-01  0.177E-01  0.177E-01  0.177E-01
 -12.287  0.177E-01  0.177E-01  0.177E-01  0.177E-01
 -12.277  0.177E-01  0.177E-01  0.177E-01  0.177E-01
 -12.267  0.177E-01  0.177E-01  0.177E-01  0.177E-01
 -12.257  0.177E-01  0.177E-01  0.177E-01  0.177E-01
 -12.247  0.177E-01  0.177E-01  0.177E-01  0.177E-01
 -12.237  0.177E-01  0.177E-01  0.177E-01  0.177E-01
 -12.227  0.178E-01  0.178E-01  0.178E-01  0.178E-01
 -12.217  0.178E-01  0.178E-01  0.178E-01  0.178E-01
 -12.207  0.178E-01  0.178E-01  0.178E-01  0.178E-01
 -12.197  0.178E-01  0.178E-01  0.178E-01  0.178E-01
 -12.187  0.178E-01  0.178E-01  0.178E-01  0.178E-01
 -12.177  0.178E-01  0.178E-01  0.178E-01  0.178E-01
 -12.167  0.178E-01  0.178E-01  0.178E-01  0.178E-01
 -12.157  0.178E-01  0.178E-01  0.178E-01  0.178E-01
 -12.147  0.179E-01  0.179E-01  0.179E-01  0.179E-01
 -12.137  0.179E-01  0.179E-01  0.179E-01  0.179E-01
 -12.127  0.179E-01  0.179E-01  0.179E-01  0.179E-01
 -12.117  0.179E-01  0.179E-01  0.179E-01  0.179E-01
 -12.107  0.179E-01  0.179E-01  0.179E-01  0.179E-01
 -12.097  0.178E-01  0.178E-01  0.178E-01  0.178E-01
 -12.087  0.178E-01  0.178E-01  0.178E-01  0.178E-01
 -12.077  0.178E-01  0.178E-01  0.178E-01  0.178E-01
 -12.067  0.178E-01  0.178E-01  0.178E-01  0.178E-01
 -12.057  0.178E-01  0.178E-01  0.178E-01  0.178E-01
 -12.047  0.177E-01  0.177E-01  0.177E-01  0.177E-01
 -12.037  0.177E-01  0.177E-01  0.177E-01  0.177E-01
 -12.027  0.177E-01  0.177E-01  0.177E-01  0.177E-01
 -12.017  0.177E-01  0.177E-01  0.177E-01  0.177E-01
 -12.007  0.177E-01  0.177E-01  0.177E-01  0.177E-01
 -11.997  0.176E-01  0.176E-01  0.176E-01  0.176E-01
 -11.987  0.176E-01  0.176E-01  0.176E-01  0.176E-01
 -11.977  0.176E-01  0.176E-01  0.176E-01  0.176E-01
 -11.967  0.176E-01  0.176E-01  0.176E-01  0.176E-01
 -11.957  0.176E-01  0.176E-01  0.176E-01  0.176E-01
 -11.947  0.176E-01  0.176E-01  0.176E-01  0.176E-01
 -11.937  0.175E-01  0.175E-01  0.175E-01  0.175E-01
 -11.927  0.175E-01  0.175E-01  0.175E-01  0.175E-01
 -11.917  0.175E-01  0.175E-01  0.175E-01  0.175E-01
 -11.907  0.175E-01  0.175E-01  0.175E-01  0.175E-01
 -11.897  0.175E-01  0.175E-01  0.175E-01  0.175E-01
 -11.887  0.174E-01  0.174E-01  0.174E-01  0.174E-01
 -11.877  0.174E-01  0.174E-01  0.174E-01  0.174E-01
 -11.867  0.174E-01  0.174E-01  0.174E-01  0.174E-01
 -11.857  0.174E-01  0.174E-01  0.174E-01  0.174E-01
 -11.847  0.173E-01  0.173E-01  0.173E-01  0.173E-01
 -11.837  0.173E-01  0.173E-01  0.173E-01  0.173E-01
 -11.827  0.172E-01  0.172E-01  0.172E-01  0.172E-01
 -11.817  0.172E-01  0.172E-01  0.172E-01  0.172E-01
 -11.807  0.171E-01  0.171E-01  0.171E-01  0.171E-01
 -11.797  0.173E-01  0.173E-01  0.173E-01  0.173E-01
 -11.787  0.172E-01  0.172E-01  0.172E-01  0.172E-01
 -11.777  0.172E-01  0.172E-01  0.172E-01  0.172E-01
 -11.767  0.171E-01  0.171E-01  0.171E-01  0.171E-01
 -11.757  0.171E-01  0.171E-01  0.171E-01  0.171E-01
 -11.747  0.170E-01  0.170E-01  0.170E-01  0.170E-01
 -11.737  0.170E-01  0.170E-01  0.170E-01  0.170E-01
 -11.727  0.169E-01  0.169E-01  0.169E-01  0.169E-01
 -11.717  0.169E-01  0.169E-01  0.169E-01  0.169E-01
 -11.707  0.169E-01  0.169E-01  0.169E-01  0.169E-01
 -11.697  0.168E-01  0.168E-01  0.168E-01  0.168E-01
 -11.687  0.168E-01  0.168E-01  0.168E-01  0.168E-01
 -11.677  0.167E-01  0.167E-01  0.167E-01  0.167E-01
 -11.667  0.167E-01  0.167E-01  0.167E-01  0.167E-01
 -11.657  0.166E-01  0.166E-01  0.166E-01  0.166E-01
 -11.647  0.166E-01  0.166E-01  0.166E-01  0.166E-01
 -11.637  0.166E-01  0.166E-01  0.166E-01  0.166E-01
 -11.627  0.165E-01  0.165E-01  0.165E-01  0.165E-01
 -11.617  0.165E-01  0.165E-01  0.165E-01  0.165E-01
 -11.607  0.164E-01  0.164E-01  0.164E-01  0.164E-01
 -11.597  0.164E-01  0.164E-01  0.164E-01  0.164E-01
 -11.587  0.164E-01  0.164E-01  0.164E-01  0.164E-01
 -11.577  0.163E-01  0.163E-01  0.163E-01  0.163E-01
 -11.567  0.163E-01  0.163E-01  0.163E-01  0.163E-01
 -11.557  0.163E-01  0.163E-01  0.163E-01  0.163E-01
 -11.547  0.163E-01  0.163E-01  0.163E-01  0.163E-01
 -11.537  0.163E-01  0.163E-01  0.163E-01  0.163E-01
 -11.527  0.163E-01  0.163E-01  0.163E-01  0.163E-01
 -11.517  0.163E-01  0.163E-01  0.163E-01  0.163E-01
 -11.507  0.163E-01  0.163E-01  0.163E-01  0.163E-01
 -11.497  0.163E-01  0.163E-01  0.163E-01  0.163E-01
 -11.487  0.163E-01  0.163E-01  0.163E-01  0.163E-01
 -11.477  0.163E-01  0.163E-01  0.163E-01  0.163E-01
 -11.467  0.163E-01  0.163E-01  0.163E-01  0.163E-01
 -11.457  0.163E-01  0.163E-01  0.163E-01  0.163E-01
 -11.447  0.163E-01  0.163E-01  0.163E-01  0.163E-01
 -11.437  0.162E-01  0.162E-01  0.162E-01  0.162E-01
 -11.427  0.162E-01  0.162E-01  0.162E-01  0.162E-01
 -11.417  0.162E-01  0.162E-01  0.162E-01  0.162E-01
 -11.407  0.162E-01  0.162E-01  0.162E-01  0.162E-01
 -11.397  0.162E-01  0.162E-01  0.162E-01  0.162E-01
 -11.387  0.162E-01  0.162E-01  0.162E-01  0.162E-01
 -11.377  0.162E-01  0.162E-01  0.162E-01  0.162E-01
 -11.367  0.162E-01  0.162E-01  0.162E-01  0.162E-01
 -11.357  0.162E-01  0.162E-01  0.162E-01  0.162E-01
 -11.347  0.162E-01  0.162E-01  0.162E-01  0.162E-01
 -11.337  0.161E-01  0.161E-01  0.161E-01  0.161E-01
 -11.327  0.161E-01  0.161E-01  0.161E-01  0.161E-01
 -11.317  0.161E-01  0.161E-01  0.161E-01  0.161E-01
 -11.307  0.161E-01  0.161E-01  0.161E-01  0.161E-01
 -11.297  0.161E-01  0.161E-01  0.161E-01  0.161E-01
 -11.287  0.161E-01  0.161E-01  0.161E-01  0.161E-01
 -11.277  0.161E-01  0.161E-01  0.161E-01  0.161E-01
 -11.267  0.161E-01  0.161E-01  0.161E-01  0.161E-01
 -11.257  0.161E-01  0.161E-01  0.161E-01  0.161E-01
 -11.247  0.160E-01  0.160E-01  0.160E-01  0.160E-01
 -11.237  0.160E-01  0.160E-01  0.160E-01  0.160E-01
 -11.227  0.160E-01  0.160E-01  0.160E-01  0.160E-01
 -11.217  0.160E-01  0.160E-01  0.160E-01  0.160E-01
 -11.207  0.160E-01  0.160E-01  0.160E-01  0.160E-01
 -11.197  0.159E-01  0.159E-01  0.159E-01  0.159E-01
 -11.187  0.159E-01  0.159E-01  0.159E-01  0.159E-01
 -11.177  0.159E-01  0.159E-01  0.159E-01  0.159E-01
 -11.167  0.159E-01  0.159E-01  0.159E-01  0.159E-01
 -11.157  0.159E-01  0.159E-01  0.159E-01  0.159E-01
 -11.147  0.159E-01  0.159E-01  0.159E-01  0.159E-01
 -11.137  0.158E-01  0.158E-01  0.158E-01  0.158E-01
 -11.127  0.158E-01  0.158E-01  0.158E-01  0.158E-01
 -11.117  0.158E-01  0.158E-01  0.158E-01  0.158E-01
 -11.107  0.158E-01  0.158E-01  0.158E-01  0.158E-01
 -11.097  0.158E-01  0.158E-01  0.158E-01  0.158E-01
 -11.087  0.157E-01  0.157E-01  0.157E-01  0.157E-01
 -11.077  0.157E-01  0.157E-01  0.157E-01  0.157E-01
 -11.067  0.157E-01  0.157E-01  0.157E-01  0.157E-01
 -11.057  0.157E-01  0.157E-01  0.157E-01  0.157E-01
 -11.047  0.157E-01  0.157E-01  0.157E-01  0.157E-01
 -11.037  0.156E-01  0.156E-01  0.156E-01  0.156E-01
 -11.027  0.156E-01  0.156E-01  0.156E-01  0.156E-01
 -11.017  0.156E-01  0.156E-01  0.156E-01  0.156E-01
 -11.007  0.156E-01  0.156E-01  0.156E-01  0.156E-01
 -10.997  0.155E-01  0.155E-01  0.155E-01  0.155E-01
 -10.987  0.155E-01  0.155E-01  0.155E-01  0.155E-01
 -10.977  0.155E-01  0.155E-01  0.155E-01  0.155E-01
 -10.967  0.155E-01  0.155E-01  0.155E-01  0.155E-01
 -10.957  0.154E-01  0.154E-01  0.154E-01  0.154E-01
 -10.947  0.150E-01  0.150E-01  0.150E-01  0.150E-01
 -10.937  0.150E-01  0.150E-01  0.150E-01  0.150E-01
 -10.927  0.150E-01  0.150E-01  0.150E-01  0.150E-01
 -10.917  0.149E-01  0.149E-01  0.149E-01  0.149E-01
 -10.907  0.149E-01  0.149E-01  0.149E-01  0.149E-01
 -10.897  0.149E-01  0.149E-01  0.149E-01  0.149E-01
 -10.887  0.149E-01  0.149E-01  0.149E-01  0.149E-01
 -10.877  0.149E-01  0.149E-01  0.149E-01  0.149E-01
 -10.867  0.148E-01  0.148E-01  0.148E-01  0.148E-01
 -10.857  0.148E-01  0.148E-01  0.148E-01  0.148E-01
 -10.847  0.148E-01  0.148E-01  0.148E-01  0.148E-01
 -10.837  0.148E-01  0.148E-01  0.148E-01  0.148E-01
 -10.827  0.148E-01  0.148E-01  0.148E-01  0.148E-01
 -10.817  0.147E-01  0.147E-01  0.147E-01  0.147E-01
 -10.807  0.147E-01  0.147E-01  0.147E-01  0.147E-01
 -10.797  0.147E-01  0.147E-01  0.147E-01  0.147E-01
 -10.787  0.147E-01  0.147E-01  0.147E-01  0.147E-01
 -10.777  0.147E-01  0.147E-01  0.147E-01  0.147E-01
 -10.767  0.146E-01  0.146E-01  0.146E-01  0.146E-01
 -10.757  0.146E-01  0.146E-01  0.146E-01  0.146E-01
 -10.747  0.146E-01  0.146E-01  0.146E-01  0.146E-01
 -10.737  0.146E-01  0.146E-01  0.146E-01  0.146E-01
 -10.727  0.146E-01  0.146E-01  0.146E-01  0.146E-01
 -10.717  0.145E-01  0.145E-01  0.145E-01  0.145E-01
 -10.707  0.145E-01  0.145E-01  0.145E-01  0.145E-01
 -10.697  0.145E-01  0.145E-01  0.145E-01  0.145E-01
 -10.687  0.145E-01  0.145E-01  0.145E-01  0.145E-01
 -10.677  0.144E-01  0.144E-01  0.144E-01  0.144E-01
 -10.667  0.144E-01  0.144E-01  0.144E-01  0.144E-01
 -10.657  0.145E-01  0.145E-01  0.145E-01  0.145E-01
 -10.647  0.145E-01  0.145E-01  0.145E-01  0.145E-01
 -10.637  0.145E-01  0.145E-01  0.145E-01  0.145E-01
 -10.627  0.145E-01  0.145E-01  0.145E-01  0.145E-01
 -10.617  0.145E-01  0.145E-01  0.145E-01  0.145E-01
 -10.607  0.145E-01  0.145E-01  0.145E-01  0.145E-01
 -10.597  0.145E-01  0.145E-01  0.145E-01  0.145E-01
 -10.587  0.145E-01  0.145E-01  0.145E-01  0.145E-01
 -10.577  0.145E-01  0.145E-01  0.145E-01  0.145E-01
 -10.567  0.145E-01  0.145E-01  0.145E-01  0.145E-01
 -10.557  0.145E-01  0.145E-01  0.145E-01  0.145E-01
 -10.547  0.144E-01  0.144E-01  0.144E-01  0.144E-01
 -10.537  0.144E-01  0.144E-01  0.144E-01  0.144E-01
 -10.527  0.144E-01  0.144E-01  0.144E-01  0.144E-01
 -10.517  0.144E-01  0.144E-01  0.144E-01  0.144E-01
 -10.507  0.144E-01  0.144E-01  0.144E-01  0.144E-01
 -10.497  0.144E-01  0.144E-01  0.144E-01  0.144E-01
 -10.487  0.143E-01  0.143E-01  0.143E-01  0.143E-01
 -10.477  0.143E-01  0.143E-01  0.143E-01  0.143E-01
 -10.467  0.143E-01  0.143E-01  0.143E-01  0.143E-01
 -10.457  0.143E-01  0.143E-01  0.143E-01  0.143E-01
 -10.447  0.143E-01  0.143E-01  0.143E-01  0.143E-01
 -10.437  0.143E-01  0.143E-01  0.143E-01  0.143E-01
 -10.427  0.142E-01  0.142E-01  0.142E-01  0.142E-01
 -10.417  0.142E-01  0.142E-01  0.142E-01  0.142E-01
 -10.407  0.142E-01  0.142E-01  0.142E-01  0.142E-01
 -10.397  0.142E-01  0.142E-01  0.142E-01  0.142E-01
 -10.387  0.141E-01  0.141E-01  0.141E-01  0.141E-01
 -10.377  0.141E-01  0.141E-01  0.141E-01  0.141E-01
 -10.367  0.141E-01  0.141E-01  0.141E-01  0.141E-01
 -10.357  0.140E-01  0.140E-01  0.140E-01  0.140E-01
 -10.347  0.140E-01  0.140E-01  0.140E-01  0.140E-01
 -10.337  0.140E-01  0.140E-01  0.140E-01  0.140E-01
 -10.327  0.139E-01  0.139E-01  0.139E-01  0.139E-01
 -10.317  0.139E-01  0.139E-01  0.139E-01  0.139E-01
 -10.307  0.138E-01  0.138E-01  0.138E-01  0.138E-01
 -10.297  0.138E-01  0.138E-01  0.138E-01  0.138E-01
 -10.287  0.137E-01  0.137E-01  0.137E-01  0.137E-01
 -10.277  0.137E-01  0.137E-01  0.137E-01  0.137E-01
 -10.267  0.137E-01  0.137E-01  0.137E-01  0.137E-01
 -10.257  0.136E-01  0.136E-01  0.136E-01  0.136E-01
 -10.247  0.136E-01  0.136E-01  0.136E-01  0.136E-01
 -10.237  0.135E-01  0.135E-01  0.135E-01  0.135E-01
 -10.227  0.135E-01  0.135E-01  0.135E-01  0.135E-01
 -10.217  0.134E-01  0.134E-01  0.134E-01  0.134E-01
 -10.207  0.134E-01  0.134E-01  0.134E-01  0.134E-01
 -10.197  0.134E-01  0.134E-01  0.134E-01  0.134E-01
 -10.187  0.133E-01  0.133E-01  0.133E-01  0.133E-01
 -10.177  0.133E-01  0.133E-01  0.133E-01  0.133E-01
 -10.167  0.132E-01  0.132E-01  0.132E-01  0.132E-01
 -10.157  0.132E-01  0.132E-01  0.132E-01  0.132E-01
 -10.147  0.131E-01  0.131E-01  0.131E-01  0.131E-01
 -10.137  0.131E-01  0.131E-01  0.131E-01  0.131E-01
 -10.127  0.130E-01  0.130E-01  0.130E-01  0.130E-01
 -10.117  0.130E-01  0.130E-01  0.130E-01  0.130E-01
 -10.107  0.130E-01  0.130E-01  0.130E-01  0.130E-01
 -10.097  0.130E-01  0.130E-01  0.130E-01  0.130E-01
 -10.087  0.129E-01  0.129E-01  0.129E-01  0.129E-01
 -10.077  0.129E-01  0.129E-01  0.129E-01  0.129E-01
 -10.067  0.129E-01  0.129E-01  0.129E-01  0.129E-01
 -10.057  0.129E-01  0.129E-01  0.129E-01  0.129E-01
 -10.047  0.129E-01  0.129E-01  0.129E-01  0.129E-01
 -10.037  0.128E-01  0.128E-01  0.128E-01  0.128E-01
 -10.027  0.128E-01  0.128E-01  0.128E-01  0.128E-01
 -10.017  0.128E-01  0.128E-01  0.128E-01  0.128E-01
 -10.007  0.128E-01  0.128E-01  0.128E-01  0.128E-01
  -9.997  0.127E-01  0.127E-01  0.127E-01  0.127E-01
  -9.987  0.127E-01  0.127E-01  0.127E-01  0.127E-01
  -9.977  0.127E-01  0.127E-01  0.127E-01  0.127E-01
  -9.967  0.127E-01  0.127E-01  0.127E-01  0.127E-01
  -9.957  0.127E-01  0.127E-01  0.127E-01  0.127E-01
  -9.947  0.126E-01  0.126E-01  0.126E-01  0.126E-01
  -9.937  0.126E-01  0.126E-01  0.126E-01  0.126E-01
  -9.927  0.126E-01  0.126E-01  0.126E-01  0.126E-01
  -9.917  0.126E-01  0.126E-01  0.126E-01  0.126E-01
  -9.907  0.125E-01  0.125E-01  0.125E-01  0.125E-01
  -9.897  0.126E-01  0.126E-01  0.126E-01  0.126E-01
  -9.887  0.126E-01  0.126E-01  0.126E-01  0.126E-01
  -9.877  0.126E-01  0.126E-01  0.126E-01  0.126E-01
  -9.867  0.126E-01  0.126E-01  0.126E-01  0.126E-01
  -9.857  0.126E-01  0.126E-01  0.126E-01  0.126E-01
  -9.847  0.126E-01  0.126E-01  0.126E-01  0.126E-01
  -9.837  0.126E-01  0.126E-01  0.126E-01  0.126E-01
  -9.827  0.126E-01  0.126E-01  0.126E-01  0.126E-01
  -9.817  0.126E-01  0.126E-01  0.126E-01  0.126E-01
  -9.807  0.126E-01  0.126E-01  0.126E-01  0.126E-01
  -9.797  0.125E-01  0.125E-01  0.125E-01  0.125E-01
  -9.787  0.125E-01  0.125E-01  0.125E-01  0.125E-01
  -9.777  0.125E-01  0.125E-01  0.125E-01  0.125E-01
  -9.767  0.124E-01  0.124E-01  0.124E-01  0.124E-01
  -9.757  0.124E-01  0.124E-01  0.124E-01  0.124E-01
  -9.747  0.124E-01  0.124E-01  0.124E-01  0.124E-01
  -9.737  0.123E-01  0.123E-01  0.123E-01  0.123E-01
  -9.727  0.123E-01  0.123E-01  0.123E-01  0.123E-01
  -9.717  0.123E-01  0.123E-01  0.123E-01  0.123E-01
  -9.707  0.122E-01  0.122E-01  0.122E-01  0.122E-01
  -9.697  0.122E-01  0.122E-01  0.122E-01  0.122E-01
  -9.687  0.122E-01  0.122E-01  0.122E-01  0.122E-01
  -9.677  0.121E-01  0.121E-01  0.121E-01  0.121E-01
  -9.667  0.121E-01  0.121E-01  0.121E-01  0.121E-01
  -9.657  0.121E-01  0.121E-01  0.121E-01  0.121E-01
  -9.647  0.120E-01  0.120E-01  0.120E-01  0.120E-01
  -9.637  0.120E-01  0.120E-01  0.120E-01  0.120E-01
  -9.627  0.119E-01  0.119E-01  0.119E-01  0.119E-01
  -9.617  0.119E-01  0.119E-01  0.119E-01  0.119E-01
  -9.607  0.119E-01  0.119E-01  0.119E-01  0.119E-01
  -9.597  0.118E-01  0.118E-01  0.118E-01  0.118E-01
  -9.587  0.118E-01  0.118E-01  0.118E-01  0.118E-01
  -9.577  0.117E-01  0.117E-01  0.117E-01  0.117E-01
  -9.567  0.117E-01  0.117E-01  0.117E-01  0.117E-01
  -9.557  0.116E-01  0.116E-01  0.116E-01  0.116E-01
  -9.547  0.116E-01  0.116E-01  0.116E-01  0.116E-01
  -9.537  0.115E-01  0.115E-01  0.115E-01  0.115E-01
  -9.527  0.115E-01  0.115E-01  0.115E-01  0.115E-01
  -9.517  0.114E-01  0.114E-01  0.114E-01  0.114E-01
  -9.507  0.114E-01  0.114E-01  0.114E-01  0.114E-01
  -9.497  0.113E-01  0.113E-01  0.113E-01  0.113E-01
  -9.487  0.113E-01  0.113E-01  0.113E-01  0.113E-01
  -9.477  0.112E-01  0.112E-01  0.112E-01  0.112E-01
  -9.467  0.112E-01  0.112E-01  0.112E-01  0.112E-01
  -9.457  0.111E-01  0.111E-01  0.111E-01  0.111E-01
  -9.447  0.111E-01  0.111E-01  0.111E-01  0.111E-01
  -9.437  0.110E-01  0.110E-01  0.110E-01  0.110E-01
  -9.427  0.109E-01  0.109E-01  0.109E-01  0.109E-01
  -9.417  0.108E-01  0.108E-01  0.108E-01  0.108E-01
  -9.407  0.108E-01  0.108E-01  0.108E-01  0.108E-01
  -9.397  0.107E-01  0.107E-01  0.107E-01  0.107E-01
  -9.387  0.108E-01  0.108E-01  0.108E-01  0.108E-01
  -9.377  0.107E-01  0.107E-01  0.107E-01  0.107E-01
  -9.367  0.106E-01  0.106E-01  0.106E-01  0.106E-01
  -9.357  0.106E-01  0.106E-01  0.106E-01  0.106E-01
  -9.347  0.105E-01  0.105E-01  0.105E-01  0.105E-01
  -9.337  0.104E-01  0.104E-01  0.104E-01  0.104E-01
  -9.327  0.104E-01  0.104E-01  0.104E-01  0.104E-01
  -9.317  0.104E-01  0.104E-01  0.104E-01  0.104E-01
  -9.307  0.104E-01  0.104E-01  0.104E-01  0.104E-01
  -9.297  0.104E-01  0.104E-01  0.104E-01  0.104E-01
  -9.287  0.104E-01  0.104E-01  0.104E-01  0.104E-01
  -9.277  0.103E-01  0.103E-01  0.103E-01  0.103E-01
  -9.267  0.103E-01  0.103E-01  0.103E-01  0.103E-01
  -9.257  0.103E-01  0.103E-01  0.103E-01  0.103E-01
  -9.247  0.104E-01  0.104E-01  0.104E-01  0.104E-01
  -9.237  0.105E-01  0.105E-01  0.105E-01  0.105E-01
  -9.227  0.106E-01  0.106E-01  0.106E-01  0.106E-01
  -9.217  0.107E-01  0.107E-01  0.107E-01  0.107E-01
  -9.207  0.108E-01  0.108E-01  0.108E-01  0.108E-01
  -9.197  0.108E-01  0.108E-01  0.108E-01  0.108E-01
  -9.187  0.108E-01  0.108E-01  0.108E-01  0.108E-01
  -9.177  0.109E-01  0.109E-01  0.109E-01  0.109E-01
  -9.167  0.109E-01  0.109E-01  0.109E-01  0.109E-01
  -9.157  0.109E-01  0.109E-01  0.109E-01  0.109E-01
  -9.147  0.109E-01  0.109E-01  0.109E-01  0.109E-01
  -9.137  0.109E-01  0.109E-01  0.109E-01  0.109E-01
  -9.127  0.108E-01  0.108E-01  0.108E-01  0.108E-01
  -9.117  0.108E-01  0.108E-01  0.108E-01  0.108E-01
  -9.107  0.107E-01  0.107E-01  0.107E-01  0.107E-01
  -9.097  0.107E-01  0.107E-01  0.107E-01  0.107E-01
  -9.087  0.106E-01  0.106E-01  0.106E-01  0.106E-01
  -9.077  0.105E-01  0.105E-01  0.105E-01  0.105E-01
  -9.067  0.104E-01  0.104E-01  0.104E-01  0.104E-01
  -9.057  0.103E-01  0.103E-01  0.103E-01  0.103E-01
  -9.047  0.102E-01  0.102E-01  0.102E-01  0.102E-01
  -9.037  0.102E-01  0.102E-01  0.102E-01  0.102E-01
  -9.027  0.101E-01  0.101E-01  0.101E-01  0.101E-01
  -9.017  0.101E-01  0.101E-01  0.101E-01  0.101E-01
  -9.007  0.101E-01  0.101E-01  0.101E-01  0.101E-01
  -8.997  0.101E-01  0.101E-01  0.101E-01  0.101E-01
  -8.987  0.101E-01  0.101E-01  0.101E-01  0.101E-01
  -8.977  0.102E-01  0.102E-01  0.102E-01  0.102E-01
  -8.967  0.103E-01  0.103E-01  0.103E-01  0.103E-01
  -8.957  0.104E-01  0.104E-01  0.104E-01  0.104E-01
  -8.947  0.104E-01  0.104E-01  0.104E-01  0.104E-01
  -8.937  0.104E-01  0.104E-01  0.104E-01  0.104E-01
  -8.927  0.106E-01  0.106E-01  0.106E-01  0.106E-01
  -8.917  0.105E-01  0.105E-01  0.105E-01  0.105E-01
  -8.907  0.104E-01  0.104E-01  0.104E-01  0.104E-01
  -8.897  0.103E-01  0.103E-01  0.103E-01  0.103E-01
  -8.887  0.101E-01  0.101E-01  0.101E-01  0.101E-01
  -8.877  0.986E-02  0.986E-02  0.986E-02  0.986E-02
  -8.867  0.957E-02  0.957E-02  0.957E-02  0.957E-02
  -8.857  0.924E-02  0.924E-02  0.924E-02  0.924E-02
  -8.847  0.887E-02  0.886E-02  0.887E-02  0.886E-02
  -8.837  0.841E-02  0.841E-02  0.841E-02  0.841E-02
  -8.827  0.791E-02  0.791E-02  0.791E-02  0.791E-02
  -8.817  0.737E-02  0.737E-02  0.737E-02  0.737E-02
  -8.807  0.679E-02  0.679E-02  0.679E-02  0.679E-02
  -8.797  0.621E-02  0.621E-02  0.621E-02  0.621E-02
  -8.787  0.570E-02  0.570E-02  0.570E-02  0.570E-02
  -8.777  0.524E-02  0.524E-02  0.524E-02  0.524E-02
  -8.767  0.483E-02  0.483E-02  0.483E-02  0.483E-02
  -8.757  0.447E-02  0.447E-02  0.447E-02  0.447E-02
  -8.747  0.415E-02  0.415E-02  0.415E-02  0.415E-02
  -8.737  0.387E-02  0.387E-02  0.387E-02  0.387E-02
  -8.727  0.363E-02  0.363E-02  0.363E-02  0.363E-02
  -8.717  0.352E-02  0.352E-02  0.352E-02  0.352E-02
  -8.707  0.365E-02  0.365E-02  0.365E-02  0.365E-02
  -8.697  0.381E-02  0.381E-02  0.381E-02  0.381E-02
  -8.687  0.398E-02  0.398E-02  0.398E-02  0.398E-02
  -8.677  0.417E-02  0.417E-02  0.417E-02  0.417E-02
  -8.667  0.436E-02  0.436E-02  0.436E-02  0.436E-02
  -8.657  0.454E-02  0.454E-02  0.454E-02  0.454E-02
  -8.647  0.471E-02  0.471E-02  0.471E-02  0.471E-02
  -8.637  0.486E-02  0.486E-02  0.486E-02  0.486E-02
  -8.627  0.502E-02  0.502E-02  0.502E-02  0.502E-02
  -8.617  0.553E-02  0.553E-02  0.553E-02  0.553E-02
  -8.607  0.651E-02  0.651E-02  0.651E-02  0.651E-02
  -8.597  0.797E-02  0.797E-02  0.797E-02  0.797E-02
  -8.587  0.818E-02  0.818E-02  0.818E-02  0.818E-02
  -8.577  0.825E-02  0.825E-02  0.825E-02  0.825E-02
  -8.567  0.830E-02  0.830E-02  0.830E-02  0.830E-02
  -8.557  0.835E-02  0.835E-02  0.835E-02  0.835E-02
  -8.547  0.838E-02  0.838E-02  0.838E-02  0.838E-02
  -8.537  0.841E-02  0.841E-02  0.841E-02  0.841E-02
  -8.527  0.843E-02  0.843E-02  0.843E-02  0.843E-02
  -8.517  0.844E-02  0.844E-02  0.844E-02  0.844E-02
  -8.507  0.844E-02  0.844E-02  0.844E-02  0.844E-02
  -8.497  0.843E-02  0.843E-02  0.843E-02  0.843E-02
  -8.487  0.841E-02  0.841E-02  0.841E-02  0.841E-02
  -8.477  0.838E-02  0.838E-02  0.838E-02  0.838E-02
  -8.467  0.834E-02  0.834E-02  0.834E-02  0.834E-02
  -8.457  0.830E-02  0.830E-02  0.830E-02  0.830E-02
  -8.447  0.825E-02  0.825E-02  0.825E-02  0.825E-02
  -8.437  0.816E-02  0.816E-02  0.816E-02  0.816E-02
  -8.427  0.809E-02  0.810E-02  0.809E-02  0.810E-02
  -8.417  0.802E-02  0.802E-02  0.802E-02  0.802E-02
  -8.407  0.793E-02  0.793E-02  0.793E-02  0.793E-02
  -8.397  0.784E-02  0.784E-02  0.784E-02  0.784E-02
  -8.387  0.773E-02  0.774E-02  0.773E-02  0.774E-02
  -8.377  0.762E-02  0.762E-02  0.762E-02  0.762E-02
  -8.367  0.750E-02  0.750E-02  0.750E-02  0.750E-02
  -8.357  0.737E-02  0.737E-02  0.737E-02  0.737E-02
  -8.347  0.724E-02  0.724E-02  0.724E-02  0.724E-02
  -8.337  0.709E-02  0.709E-02  0.709E-02  0.709E-02
  -8.327  0.694E-02  0.694E-02  0.694E-02  0.694E-02
  -8.317  0.678E-02  0.678E-02  0.678E-02  0.678E-02
  -8.307  0.661E-02  0.661E-02  0.661E-02  0.661E-02
  -8.297  0.644E-02  0.644E-02  0.644E-02  0.644E-02
  -8.287  0.626E-02  0.626E-02  0.626E-02  0.626E-02
  -8.277  0.607E-02  0.607E-02  0.607E-02  0.607E-02
  -8.267  0.587E-02  0.587E-02  0.587E-02  0.587E-02
  -8.257  0.566E-02  0.566E-02  0.566E-02  0.566E-02
  -8.247  0.544E-02  0.544E-02  0.544E-02  0.544E-02
  -8.237  0.521E-02  0.521E-02  0.521E-02  0.521E-02
  -8.227  0.497E-02  0.497E-02  0.497E-02  0.497E-02
  -8.217  0.487E-02  0.487E-02  0.487E-02  0.487E-02
  -8.207  0.477E-02  0.477E-02  0.477E-02  0.477E-02
  -8.197  0.471E-02  0.471E-02  0.471E-02  0.471E-02
  -8.187  0.466E-02  0.466E-02  0.466E-02  0.466E-02
  -8.177  0.461E-02  0.461E-02  0.461E-02  0.461E-02
  -8.167  0.456E-02  0.456E-02  0.456E-02  0.456E-02
  -8.157  0.451E-02  0.451E-02  0.451E-02  0.451E-02
  -8.147  0.446E-02  0.446E-02  0.446E-02  0.446E-02
  -8.137  0.440E-02  0.440E-02  0.440E-02  0.440E-02
  -8.127  0.435E-02  0.435E-02  0.435E-02  0.435E-02
  -8.117  0.430E-02  0.430E-02  0.430E-02  0.430E-02
  -8.107  0.515E-02  0.515E-02  0.515E-02  0.515E-02
  -8.097  0.518E-02  0.518E-02  0.518E-02  0.518E-02
  -8.087  0.521E-02  0.521E-02  0.521E-02  0.521E-02
  -8.077  0.523E-02  0.523E-02  0.523E-02  0.523E-02
  -8.067  0.525E-02  0.525E-02  0.525E-02  0.525E-02
  -8.057  0.527E-02  0.527E-02  0.527E-02  0.527E-02
  -8.047  0.528E-02  0.528E-02  0.528E-02  0.528E-02
  -8.037  0.530E-02  0.530E-02  0.530E-02  0.530E-02
  -8.027  0.531E-02  0.531E-02  0.531E-02  0.531E-02
  -8.017  0.531E-02  0.531E-02  0.531E-02  0.531E-02
  -8.007  0.532E-02  0.532E-02  0.532E-02  0.532E-02
  -7.997  0.532E-02  0.532E-02  0.532E-02  0.532E-02
  -7.987  0.532E-02  0.532E-02  0.532E-02  0.532E-02
  -7.977  0.532E-02  0.532E-02  0.532E-02  0.532E-02
  -7.967  0.532E-02  0.532E-02  0.532E-02  0.532E-02
  -7.957  0.531E-02  0.531E-02  0.531E-02  0.531E-02
  -7.947  0.530E-02  0.530E-02  0.530E-02  0.530E-02
  -7.937  0.529E-02  0.529E-02  0.529E-02  0.529E-02
  -7.927  0.528E-02  0.528E-02  0.528E-02  0.528E-02
  -7.917  0.526E-02  0.526E-02  0.526E-02  0.526E-02
  -7.907  0.524E-02  0.524E-02  0.524E-02  0.524E-02
  -7.897  0.524E-02  0.524E-02  0.524E-02  0.524E-02
  -7.887  0.526E-02  0.526E-02  0.526E-02  0.526E-02
  -7.877  0.520E-02  0.520E-02  0.520E-02  0.520E-02
  -7.867  0.521E-02  0.521E-02  0.521E-02  0.521E-02
  -7.857  0.522E-02  0.522E-02  0.522E-02  0.522E-02
  -7.847  0.523E-02  0.523E-02  0.523E-02  0.523E-02
  -7.837  0.523E-02  0.523E-02  0.523E-02  0.523E-02
  -7.827  0.522E-02  0.522E-02  0.522E-02  0.522E-02
  -7.817  0.521E-02  0.521E-02  0.521E-02  0.521E-02
  -7.807  0.519E-02  0.519E-02  0.519E-02  0.519E-02
  -7.797  0.517E-02  0.517E-02  0.517E-02  0.517E-02
  -7.787  0.514E-02  0.514E-02  0.514E-02  0.514E-02
  -7.777  0.510E-02  0.510E-02  0.510E-02  0.510E-02
  -7.767  0.505E-02  0.505E-02  0.505E-02  0.505E-02
  -7.757  0.501E-02  0.501E-02  0.501E-02  0.501E-02
  -7.747  0.497E-02  0.497E-02  0.497E-02  0.497E-02
  -7.737  0.492E-02  0.492E-02  0.492E-02  0.492E-02
  -7.727  0.487E-02  0.487E-02  0.487E-02  0.487E-02
  -7.717  0.482E-02  0.482E-02  0.482E-02  0.482E-02
  -7.707  0.476E-02  0.476E-02  0.476E-02  0.476E-02
  -7.697  0.470E-02  0.470E-02  0.470E-02  0.470E-02
  -7.687  0.463E-02  0.463E-02  0.463E-02  0.463E-02
  -7.677  0.456E-02  0.456E-02  0.456E-02  0.456E-02
  -7.667  0.449E-02  0.449E-02  0.449E-02  0.449E-02
  -7.657  0.442E-02  0.442E-02  0.442E-02  0.442E-02
  -7.647  0.436E-02  0.436E-02  0.436E-02  0.436E-02
  -7.637  0.429E-02  0.429E-02  0.429E-02  0.429E-02
  -7.627  0.423E-02  0.423E-02  0.423E-02  0.423E-02
  -7.617  0.417E-02  0.417E-02  0.417E-02  0.417E-02
  -7.607  0.412E-02  0.412E-02  0.412E-02  0.412E-02
  -7.597  0.406E-02  0.406E-02  0.406E-02  0.406E-02
  -7.587  0.401E-02  0.401E-02  0.401E-02  0.401E-02
  -7.577  0.396E-02  0.396E-02  0.396E-02  0.396E-02
  -7.567  0.392E-02  0.392E-02  0.392E-02  0.392E-02
  -7.557  0.387E-02  0.387E-02  0.387E-02  0.387E-02
  -7.547  0.383E-02  0.383E-02  0.383E-02  0.383E-02
  -7.537  0.379E-02  0.379E-02  0.379E-02  0.379E-02
  -7.527  0.375E-02  0.375E-02  0.375E-02  0.375E-02
  -7.517  0.372E-02  0.372E-02  0.372E-02  0.372E-02
  -7.507  0.370E-02  0.370E-02  0.370E-02  0.370E-02
  -7.497  0.367E-02  0.367E-02  0.367E-02  0.367E-02
  -7.487  0.365E-02  0.365E-02  0.365E-02  0.365E-02
  -7.477  0.362E-02  0.362E-02  0.362E-02  0.362E-02
  -7.467  0.360E-02  0.360E-02  0.360E-02  0.360E-02
  -7.457  0.358E-02  0.358E-02  0.358E-02  0.358E-02
  -7.447  0.355E-02  0.355E-02  0.355E-02  0.355E-02
  -7.437  0.353E-02  0.353E-02  0.353E-02  0.353E-02
  -7.427  0.350E-02  0.350E-02  0.350E-02  0.350E-02
  -7.417  0.348E-02  0.348E-02  0.348E-02  0.348E-02
  -7.407  0.345E-02  0.345E-02  0.345E-02  0.345E-02
  -7.397  0.342E-02  0.342E-02  0.342E-02  0.342E-02
  -7.387  0.340E-02  0.340E-02  0.340E-02  0.340E-02
  -7.377  0.337E-02  0.337E-02  0.337E-02  0.337E-02
  -7.367  0.334E-02  0.334E-02  0.334E-02  0.334E-02
  -7.357  0.332E-02  0.332E-02  0.332E-02  0.332E-02
  -7.347  0.329E-02  0.329E-02  0.329E-02  0.329E-02
  -7.337  0.327E-02  0.327E-02  0.327E-02  0.327E-02
  -7.327  0.324E-02  0.324E-02  0.324E-02  0.324E-02
  -7.317  0.322E-02  0.322E-02  0.322E-02  0.322E-02
  -7.307  0.319E-02  0.319E-02  0.319E-02  0.319E-02
  -7.297  0.317E-02  0.317E-02  0.317E-02  0.317E-02
  -7.287  0.314E-02  0.314E-02  0.314E-02  0.314E-02
  -7.277  0.312E-02  0.312E-02  0.312E-02  0.312E-02
  -7.267  0.309E-02  0.309E-02  0.309E-02  0.309E-02
  -7.257  0.307E-02  0.307E-02  0.307E-02  0.307E-02
  -7.247  0.304E-02  0.304E-02  0.304E-02  0.304E-02
  -7.237  0.302E-02  0.302E-02  0.302E-02  0.302E-02
  -7.227  0.299E-02  0.299E-02  0.299E-02  0.299E-02
  -7.217  0.296E-02  0.296E-02  0.296E-02  0.296E-02
  -7.207  0.294E-02  0.294E-02  0.294E-02  0.294E-02
  -7.197  0.291E-02  0.291E-02  0.291E-02  0.291E-02
  -7.187  0.289E-02  0.289E-02  0.289E-02  0.289E-02
  -7.177  0.286E-02  0.286E-02  0.286E-02  0.286E-02
  -7.167  0.284E-02  0.284E-02  0.284E-02  0.284E-02
  -7.157  0.281E-02  0.281E-02  0.281E-02  0.281E-02
  -7.147  0.279E-02  0.279E-02  0.279E-02  0.279E-02
  -7.137  0.276E-02  0.276E-02  0.276E-02  0.276E-02
  -7.127  0.274E-02  0.274E-02  0.274E-02  0.274E-02
  -7.117  0.271E-02  0.271E-02  0.271E-02  0.271E-02
  -7.107  0.269E-02  0.269E-02  0.269E-02  0.269E-02
  -7.097  0.266E-02  0.266E-02  0.266E-02  0.266E-02
  -7.087  0.264E-02  0.264E-02  0.264E-02  0.264E-02
  -7.077  0.261E-02  0.261E-02  0.261E-02  0.261E-02
  -7.067  0.259E-02  0.259E-02  0.259E-02  0.259E-02
  -7.057  0.257E-02  0.257E-02  0.257E-02  0.257E-02
  -7.047  0.254E-02  0.254E-02  0.254E-02  0.254E-02
  -7.037  0.252E-02  0.252E-02  0.252E-02  0.252E-02
  -7.027  0.250E-02  0.250E-02  0.250E-02  0.250E-02
  -7.017  0.248E-02  0.248E-02  0.248E-02  0.248E-02
  -7.007  0.245E-02  0.245E-02  0.245E-02  0.245E-02
  -6.997  0.243E-02  0.243E-02  0.243E-02  0.243E-02
  -6.987  0.241E-02  0.241E-02  0.241E-02  0.241E-02
  -6.977  0.238E-02  0.238E-02  0.238E-02  0.238E-02
  -6.967  0.236E-02  0.236E-02  0.236E-02  0.236E-02
  -6.957  0.234E-02  0.234E-02  0.234E-02  0.234E-02
  -6.947  0.232E-02  0.232E-02  0.232E-02  0.232E-02
  -6.937  0.230E-02  0.230E-02  0.230E-02  0.230E-02
  -6.927  0.231E-02  0.231E-02  0.231E-02  0.231E-02
  -6.917  0.229E-02  0.229E-02  0.229E-02  0.229E-02
  -6.907  0.228E-02  0.228E-02  0.228E-02  0.228E-02
  -6.897  0.226E-02  0.226E-02  0.226E-02  0.226E-02
  -6.887  0.225E-02  0.225E-02  0.225E-02  0.225E-02
  -6.877  0.223E-02  0.223E-02  0.223E-02  0.223E-02
  -6.867  0.220E-02  0.220E-02  0.220E-02  0.220E-02
  -6.857  0.218E-02  0.218E-02  0.218E-02  0.218E-02
  -6.847  0.216E-02  0.216E-02  0.216E-02  0.216E-02
  -6.837  0.214E-02  0.214E-02  0.214E-02  0.214E-02
  -6.827  0.212E-02  0.212E-02  0.212E-02  0.212E-02
  -6.817  0.210E-02  0.210E-02  0.210E-02  0.210E-02
  -6.807  0.208E-02  0.208E-02  0.208E-02  0.208E-02
  -6.797  0.206E-02  0.206E-02  0.206E-02  0.206E-02
  -6.787  0.204E-02  0.204E-02  0.204E-02  0.204E-02
  -6.777  0.202E-02  0.202E-02  0.202E-02  0.202E-02
  -6.767  0.200E-02  0.200E-02  0.200E-02  0.200E-02
  -6.757  0.198E-02  0.198E-02  0.198E-02  0.198E-02
  -6.747  0.196E-02  0.196E-02  0.196E-02  0.196E-02
  -6.737  0.194E-02  0.194E-02  0.194E-02  0.194E-02
  -6.727  0.192E-02  0.192E-02  0.192E-02  0.192E-02
  -6.717  0.190E-02  0.190E-02  0.190E-02  0.190E-02
  -6.707  0.188E-02  0.188E-02  0.188E-02  0.188E-02
  -6.697  0.187E-02  0.187E-02  0.187E-02  0.187E-02
  -6.687  0.185E-02  0.185E-02  0.185E-02  0.185E-02
  -6.677  0.183E-02  0.183E-02  0.183E-02  0.183E-02
  -6.667  0.181E-02  0.181E-02  0.181E-02  0.181E-02
  -6.657  0.179E-02  0.179E-02  0.179E-02  0.179E-02
  -6.647  0.177E-02  0.177E-02  0.177E-02  0.177E-02
  -6.637  0.175E-02  0.175E-02  0.175E-02  0.175E-02
  -6.627  0.173E-02  0.173E-02  0.173E-02  0.173E-02
  -6.617  0.171E-02  0.171E-02  0.171E-02  0.171E-02
  -6.607  0.169E-02  0.169E-02  0.169E-02  0.169E-02
  -6.597  0.167E-02  0.167E-02  0.167E-02  0.167E-02
  -6.587  0.165E-02  0.165E-02  0.165E-02  0.165E-02
  -6.577  0.163E-02  0.163E-02  0.163E-02  0.163E-02
  -6.567  0.161E-02  0.161E-02  0.161E-02  0.161E-02
  -6.557  0.159E-02  0.159E-02  0.159E-02  0.159E-02
  -6.547  0.158E-02  0.158E-02  0.158E-02  0.158E-02
  -6.537  0.156E-02  0.156E-02  0.156E-02  0.156E-02
  -6.527  0.154E-02  0.154E-02  0.154E-02  0.154E-02
  -6.517  0.152E-02  0.152E-02  0.152E-02  0.152E-02
  -6.507  0.150E-02  0.150E-02  0.150E-02  0.150E-02
  -6.497  0.148E-02  0.148E-02  0.148E-02  0.148E-02
  -6.487  0.146E-02  0.146E-02  0.146E-02  0.146E-02
  -6.477  0.147E-02  0.147E-02  0.147E-02  0.147E-02
  -6.467  0.145E-02  0.145E-02  0.145E-02  0.145E-02
  -6.457  0.143E-02  0.143E-02  0.143E-02  0.143E-02
  -6.447  0.141E-02  0.141E-02  0.141E-02  0.141E-02
  -6.437  0.139E-02  0.139E-02  0.139E-02  0.139E-02
  -6.427  0.140E-02  0.140E-02  0.140E-02  0.140E-02
  -6.417  0.138E-02  0.138E-02  0.138E-02  0.138E-02
  -6.407  0.136E-02  0.136E-02  0.136E-02  0.136E-02
  -6.397  0.134E-02  0.134E-02  0.134E-02  0.134E-02
  -6.387  0.133E-02  0.133E-02  0.133E-02  0.133E-02
  -6.377  0.131E-02  0.131E-02  0.131E-02  0.131E-02
  -6.367  0.129E-02  0.129E-02  0.129E-02  0.129E-02
  -6.357  0.127E-02  0.127E-02  0.127E-02  0.127E-02
  -6.347  0.125E-02  0.125E-02  0.125E-02  0.125E-02
  -6.337  0.123E-02  0.123E-02  0.123E-02  0.123E-02
  -6.327  0.122E-02  0.122E-02  0.122E-02  0.122E-02
  -6.317  0.120E-02  0.120E-02  0.120E-02  0.120E-02
  -6.307  0.118E-02  0.118E-02  0.118E-02  0.118E-02
  -6.297  0.116E-02  0.116E-02  0.116E-02  0.116E-02
  -6.287  0.114E-02  0.114E-02  0.114E-02  0.114E-02
  -6.277  0.113E-02  0.113E-02  0.113E-02  0.113E-02
  -6.267  0.111E-02  0.111E-02  0.111E-02  0.111E-02
  -6.257  0.109E-02  0.109E-02  0.109E-02  0.109E-02
  -6.247  0.107E-02  0.107E-02  0.107E-02  0.107E-02
  -6.237  0.106E-02  0.106E-02  0.106E-02  0.106E-02
  -6.227  0.104E-02  0.104E-02  0.104E-02  0.104E-02
  -6.217  0.102E-02  0.102E-02  0.102E-02  0.102E-02
  -6.207  0.100E-02  0.100E-02  0.100E-02  0.100E-02
  -6.197  0.985E-03  0.985E-03  0.985E-03  0.985E-03
  -6.187  0.968E-03  0.968E-03  0.968E-03  0.968E-03
  -6.177  0.950E-03  0.950E-03  0.950E-03  0.950E-03
  -6.167  0.933E-03  0.933E-03  0.933E-03  0.933E-03
  -6.157  0.916E-03  0.916E-03  0.916E-03  0.916E-03
  -6.147  0.899E-03  0.899E-03  0.899E-03  0.899E-03
  -6.137  0.882E-03  0.882E-03  0.882E-03  0.882E-03
  -6.127  0.865E-03  0.865E-03  0.865E-03  0.865E-03
  -6.117  0.848E-03  0.848E-03  0.848E-03  0.848E-03
  -6.107  0.831E-03  0.831E-03  0.831E-03  0.831E-03
  -6.097  0.815E-03  0.815E-03  0.815E-03  0.815E-03
  -6.087  0.798E-03  0.799E-03  0.798E-03  0.799E-03
  -6.077  0.783E-03  0.783E-03  0.783E-03  0.783E-03
  -6.067  0.767E-03  0.767E-03  0.767E-03  0.767E-03
  -6.057  0.757E-03  0.757E-03  0.757E-03  0.757E-03
  -6.047  0.747E-03  0.747E-03  0.747E-03  0.747E-03
  -6.037  0.737E-03  0.737E-03  0.737E-03  0.737E-03
  -6.027  0.727E-03  0.727E-03  0.727E-03  0.727E-03
  -6.017  0.717E-03  0.717E-03  0.717E-03  0.717E-03
  -6.007  0.718E-03  0.718E-03  0.718E-03  0.718E-03
  -5.997  0.708E-03  0.708E-03  0.708E-03  0.708E-03
  -5.987  0.698E-03  0.698E-03  0.698E-03  0.698E-03
  -5.977  0.688E-03  0.688E-03  0.688E-03  0.688E-03
  -5.967  0.677E-03  0.677E-03  0.677E-03  0.677E-03
  -5.957  0.666E-03  0.666E-03  0.666E-03  0.666E-03
  -5.947  0.655E-03  0.656E-03  0.655E-03  0.656E-03
  -5.937  0.644E-03  0.644E-03  0.644E-03  0.644E-03
  -5.927  0.633E-03  0.633E-03  0.633E-03  0.633E-03
  -5.917  0.622E-03  0.622E-03  0.622E-03  0.622E-03
  -5.907  0.610E-03  0.610E-03  0.610E-03  0.610E-03
  -5.897  0.596E-03  0.596E-03  0.596E-03  0.596E-03
  -5.887  0.578E-03  0.578E-03  0.578E-03  0.578E-03
  -5.877  0.561E-03  0.561E-03  0.561E-03  0.561E-03
  -5.867  0.544E-03  0.544E-03  0.544E-03  0.544E-03
  -5.857  0.527E-03  0.527E-03  0.527E-03  0.527E-03
  -5.847  0.510E-03  0.510E-03  0.510E-03  0.510E-03
  -5.837  0.493E-03  0.493E-03  0.493E-03  0.493E-03
  -5.827  0.476E-03  0.476E-03  0.476E-03  0.476E-03
  -5.817  0.460E-03  0.460E-03  0.460E-03  0.460E-03
  -5.807  0.443E-03  0.443E-03  0.443E-03  0.443E-03
  -5.797  0.427E-03  0.427E-03  0.427E-03  0.427E-03
  -5.787  0.411E-03  0.411E-03  0.411E-03  0.411E-03
  -5.777  0.395E-03  0.395E-03  0.395E-03  0.395E-03
  -5.767  0.379E-03  0.379E-03  0.379E-03  0.379E-03
  -5.757  0.363E-03  0.363E-03  0.363E-03  0.363E-03
  -5.747  0.348E-03  0.348E-03  0.348E-03  0.348E-03
  -5.737  0.333E-03  0.333E-03  0.333E-03  0.333E-03
  -5.727  0.320E-03  0.320E-03  0.320E-03  0.320E-03
  -5.717  0.307E-03  0.307E-03  0.307E-03  0.307E-03
  -5.707  0.294E-03  0.294E-03  0.294E-03  0.294E-03
  -5.697  0.283E-03  0.283E-03  0.283E-03  0.283E-03
  -5.687  0.272E-03  0.272E-03  0.272E-03  0.272E-03
  -5.677  0.260E-03  0.260E-03  0.260E-03  0.260E-03
  -5.667  0.248E-03  0.248E-03  0.248E-03  0.248E-03
  -5.657  0.237E-03  0.237E-03  0.237E-03  0.237E-03
  -5.647  0.225E-03  0.225E-03  0.225E-03  0.225E-03
  -5.637  0.213E-03  0.213E-03  0.213E-03  0.213E-03
  -5.627  0.202E-03  0.202E-03  0.202E-03  0.202E-03
  -5.617  0.191E-03  0.191E-03  0.191E-03  0.191E-03
  -5.607  0.179E-03  0.180E-03  0.179E-03  0.180E-03
  -5.597  0.168E-03  0.168E-03  0.168E-03  0.168E-03
  -5.587  0.157E-03  0.157E-03  0.157E-03  0.157E-03
  -5.577  0.252E-03  0.252E-03  0.252E-03  0.252E-03
  -5.567  0.221E-03  0.221E-03  0.221E-03  0.221E-03
  -5.557  0.192E-03  0.192E-03  0.192E-03  0.192E-03
  -5.547  0.165E-03  0.165E-03  0.165E-03  0.165E-03
  -5.537  0.140E-03  0.140E-03  0.140E-03  0.140E-03
  -5.527  0.117E-03  0.117E-03  0.117E-03  0.117E-03
  -5.517  0.951E-04  0.952E-04  0.951E-04  0.952E-04
  -5.507  0.755E-04  0.756E-04  0.755E-04  0.756E-04
  -5.497  0.595E-04  0.596E-04  0.595E-04  0.596E-04
  -5.487  0.454E-04  0.455E-04  0.454E-04  0.455E-04
  -5.477  0.332E-04  0.333E-04  0.332E-04  0.333E-04
  -5.467  0.230E-04  0.230E-04  0.230E-04  0.230E-04
  -5.457  0.146E-04  0.146E-04  0.146E-04  0.146E-04
  -5.447  0.807E-05  0.808E-05  0.807E-05  0.808E-05
  -5.437  0.348E-05  0.349E-05  0.348E-05  0.349E-05
  -5.427  0.794E-06  0.798E-06  0.794E-06  0.798E-06
  -5.417  0.133E-10  0.113E-10  0.133E-10  0.113E-10
  -5.407  0.132E-10  0.112E-10  0.132E-10  0.112E-10
  -5.397  0.131E-10  0.112E-10  0.131E-10  0.112E-10
  -5.387  0.129E-10  0.111E-10  0.129E-10  0.111E-10
  -5.377  0.128E-10  0.110E-10  0.128E-10  0.110E-10
  -5.367  0.127E-10  0.109E-10  0.127E-10  0.109E-10
  -5.357  0.125E-10  0.109E-10  0.125E-10  0.109E-10
  -5.347  0.124E-10  0.108E-10  0.124E-10  0.108E-10
  -5.337  0.123E-10  0.107E-10  0.123E-10  0.107E-10
  -5.327  0.122E-10  0.107E-10  0.122E-10  0.107E-10
  -5.317  0.121E-10  0.106E-10  0.121E-10  0.106E-10
  -5.307  0.119E-10  0.105E-10  0.119E-10  0.105E-10
  -5.297  0.118E-10  0.105E-10  0.118E-10  0.105E-10
  -5.287  0.117E-10  0.104E-10  0.117E-10  0.104E-10
  -5.277  0.116E-10  0.103E-10  0.116E-10  0.103E-10
  -5.267  0.115E-10  0.103E-10  0.115E-10  0.103E-10
  -5.257  0.113E-10  0.102E-10  0.113E-10  0.102E-10
  -5.247  0.112E-10  0.102E-10  0.112E-10  0.102E-10
  -5.237  0.111E-10  0.101E-10  0.111E-10  0.101E-10
  -5.227  0.110E-10  0.101E-10  0.110E-10  0.101E-10
  -5.217  0.109E-10  0.100E-10  0.109E-10  0.100E-10
  -5.207  0.108E-10  0.997E-11  0.108E-10  0.997E-11
  -5.197  0.107E-10  0.992E-11  0.107E-10  0.992E-11
  -5.187  0.106E-10  0.988E-11  0.106E-10  0.988E-11
  -5.177  0.105E-10  0.984E-11  0.105E-10  0.984E-11
  -5.167  0.104E-10  0.980E-11  0.104E-10  0.980E-11
  -5.157  0.103E-10  0.977E-11  0.103E-10  0.977E-11
  -5.147  0.102E-10  0.974E-11  0.102E-10  0.974E-11
  -5.137  0.101E-10  0.971E-11  0.101E-10  0.971E-11
  -5.127  0.998E-11  0.969E-11  0.998E-11  0.969E-11
  -5.117  0.988E-11  0.967E-11  0.988E-11  0.967E-11
  -5.107  0.978E-11  0.965E-11  0.978E-11  0.965E-11
  -5.097  0.967E-11  0.963E-11  0.967E-11  0.963E-11
  -5.087  0.957E-11  0.962E-11  0.957E-11  0.962E-11
  -5.077  0.949E-11  0.960E-11  0.949E-11  0.960E-11
  -5.067  0.945E-11  0.958E-11  0.945E-11  0.958E-11
  -5.057  0.945E-11  0.959E-11  0.945E-11  0.959E-11
  -5.047  0.946E-11  0.962E-11  0.946E-11  0.962E-11
  -5.037  0.948E-11  0.966E-11  0.948E-11  0.966E-11
  -5.027  0.953E-11  0.971E-11  0.953E-11  0.971E-11
  -5.017  0.959E-11  0.979E-11  0.959E-11  0.979E-11
  -5.007  0.966E-11  0.988E-11  0.966E-11  0.988E-11
  -4.997  0.975E-11  0.998E-11  0.975E-11  0.998E-11
  -4.987  0.985E-11  0.101E-10  0.985E-11  0.101E-10
  -4.977  0.994E-11  0.102E-10  0.994E-11  0.102E-10
  -4.967  0.100E-10  0.103E-10  0.100E-10  0.103E-10
  -4.957  0.101E-10  0.105E-10  0.101E-10  0.105E-10
  -4.947  0.102E-10  0.106E-10  0.102E-10  0.106E-10
  -4.937  0.103E-10  0.108E-10  0.103E-10  0.108E-10
  -4.927  0.104E-10  0.109E-10  0.104E-10  0.109E-10
  -4.917  0.105E-10  0.111E-10  0.105E-10  0.111E-10
  -4.907  0.106E-10  0.112E-10  0.106E-10  0.112E-10
  -4.897  0.107E-10  0.113E-10  0.107E-10  0.113E-10
  -4.887  0.108E-10  0.115E-10  0.108E-10  0.115E-10
  -4.877  0.109E-10  0.116E-10  0.109E-10  0.116E-10
  -4.867  0.110E-10  0.117E-10  0.110E-10  0.117E-10
  -4.857  0.111E-10  0.119E-10  0.111E-10  0.119E-10
  -4.847  0.111E-10  0.120E-10  0.111E-10  0.120E-10
  -4.837  0.112E-10  0.121E-10  0.112E-10  0.121E-10
  -4.827  0.113E-10  0.122E-10  0.113E-10  0.122E-10
  -4.817  0.114E-10  0.123E-10  0.114E-10  0.123E-10
  -4.807  0.116E-10  0.126E-10  0.116E-10  0.126E-10
  -4.797  0.117E-10  0.128E-10  0.117E-10  0.128E-10
  -4.787  0.119E-10  0.130E-10  0.119E-10  0.130E-10
  -4.777  0.120E-10  0.132E-10  0.120E-10  0.132E-10
  -4.767  0.120E-10  0.134E-10  0.120E-10  0.134E-10
  -4.757  0.121E-10  0.136E-10  0.121E-10  0.136E-10
  -4.747  0.121E-10  0.139E-10  0.121E-10  0.139E-10
  -4.737  0.136E-10  0.294E-10  0.136E-10  0.294E-10
  -4.727  0.130E-10  0.203E-10  0.130E-10  0.203E-10
  -4.717  0.122E-10  0.146E-10  0.122E-10  0.146E-10
  -4.707  0.116E-10  0.129E-10  0.116E-10  0.129E-10
  -4.697  0.115E-10  0.125E-10  0.115E-10  0.125E-10
  -4.687  0.114E-10  0.121E-10  0.114E-10  0.121E-10
  -4.677  0.113E-10  0.118E-10  0.113E-10  0.118E-10
  -4.667  0.113E-10  0.114E-10  0.113E-10  0.114E-10
  -4.657  0.112E-10  0.111E-10  0.112E-10  0.111E-10
  -4.647  0.111E-10  0.108E-10  0.111E-10  0.108E-10
  -4.637  0.110E-10  0.106E-10  0.110E-10  0.106E-10
  -4.627  0.110E-10  0.103E-10  0.110E-10  0.103E-10
  -4.617  0.109E-10  0.101E-10  0.109E-10  0.101E-10
  -4.607  0.108E-10  0.984E-11  0.108E-10  0.984E-11
  -4.597  0.107E-10  0.963E-11  0.107E-10  0.963E-11
  -4.587  0.106E-10  0.944E-11  0.106E-10  0.944E-11
  -4.577  0.106E-10  0.927E-11  0.106E-10  0.927E-11
  -4.567  0.105E-10  0.911E-11  0.105E-10  0.911E-11
  -4.557  0.104E-10  0.904E-11  0.104E-10  0.904E-11
  -4.547  0.104E-10  0.908E-11  0.104E-10  0.908E-11
  -4.537  0.104E-10  0.912E-11  0.104E-10  0.912E-11
  -4.527  0.104E-10  0.917E-11  0.104E-10  0.917E-11
  -4.517  0.104E-10  0.921E-11  0.104E-10  0.921E-11
  -4.507  0.105E-10  0.925E-11  0.105E-10  0.925E-11
  -4.497  0.105E-10  0.930E-11  0.105E-10  0.930E-11
  -4.487  0.105E-10  0.934E-11  0.105E-10  0.934E-11
  -4.477  0.105E-10  0.939E-11  0.105E-10  0.939E-11
  -4.467  0.106E-10  0.943E-11  0.106E-10  0.943E-11
  -4.457  0.106E-10  0.948E-11  0.106E-10  0.948E-11
  -4.447  0.107E-10  0.953E-11  0.107E-10  0.953E-11
  -4.437  0.102E-10  0.839E-11  0.102E-10  0.839E-11
  -4.427  0.104E-10  0.843E-11  0.104E-10  0.843E-11
  -4.417  0.106E-10  0.847E-11  0.106E-10  0.847E-11
  -4.407  0.108E-10  0.851E-11  0.108E-10  0.851E-11
  -4.397  0.111E-10  0.854E-11  0.111E-10  0.854E-11
  -4.387  0.114E-10  0.857E-11  0.114E-10  0.857E-11
  -4.377  0.116E-10  0.861E-11  0.116E-10  0.861E-11
  -4.367  0.121E-10  0.883E-11  0.121E-10  0.883E-11
  -4.357  0.120E-10  0.871E-11  0.120E-10  0.871E-11
  -4.347  0.119E-10  0.859E-11  0.119E-10  0.859E-11
  -4.337  0.119E-10  0.847E-11  0.119E-10  0.847E-11
  -4.327  0.118E-10  0.836E-11  0.118E-10  0.836E-11
  -4.317  0.117E-10  0.825E-11  0.117E-10  0.825E-11
  -4.307  0.116E-10  0.814E-11  0.116E-10  0.814E-11
  -4.297  0.115E-10  0.804E-11  0.115E-10  0.804E-11
  -4.287  0.114E-10  0.793E-11  0.114E-10  0.793E-11
  -4.277  0.113E-10  0.783E-11  0.113E-10  0.783E-11
  -4.267  0.112E-10  0.774E-11  0.112E-10  0.774E-11
  -4.257  0.110E-10  0.764E-11  0.110E-10  0.764E-11
  -4.247  0.109E-10  0.755E-11  0.109E-10  0.755E-11
  -4.237  0.107E-10  0.746E-11  0.107E-10  0.746E-11
  -4.227  0.106E-10  0.738E-11  0.106E-10  0.738E-11
  -4.217  0.104E-10  0.730E-11  0.104E-10  0.730E-11
  -4.207  0.102E-10  0.721E-11  0.102E-10  0.721E-11
  -4.197  0.100E-10  0.714E-11  0.100E-10  0.714E-11
  -4.187  0.985E-11  0.706E-11  0.985E-11  0.706E-11
  -4.177  0.965E-11  0.699E-11  0.965E-11  0.699E-11
  -4.167  0.944E-11  0.692E-11  0.944E-11  0.692E-11
  -4.157  0.923E-11  0.685E-11  0.923E-11  0.685E-11
  -4.147  0.901E-11  0.679E-11  0.901E-11  0.679E-11
  -4.137  0.877E-11  0.673E-11  0.877E-11  0.673E-11
  -4.127  0.854E-11  0.667E-11  0.854E-11  0.667E-11
  -4.117  0.829E-11  0.661E-11  0.829E-11  0.661E-11
  -4.107  0.809E-11  0.657E-11  0.809E-11  0.657E-11
  -4.097  0.796E-11  0.652E-11  0.796E-11  0.652E-11
  -4.087  0.782E-11  0.648E-11  0.782E-11  0.648E-11
  -4.077  0.768E-11  0.644E-11  0.768E-11  0.644E-11
  -4.067  0.753E-11  0.640E-11  0.753E-11  0.640E-11
  -4.057  0.739E-11  0.636E-11  0.739E-11  0.636E-11
  -4.047  0.724E-11  0.633E-11  0.724E-11  0.633E-11
  -4.037  0.709E-11  0.629E-11  0.709E-11  0.629E-11
  -4.027  0.694E-11  0.626E-11  0.694E-11  0.626E-11
  -4.017  0.678E-11  0.623E-11  0.678E-11  0.623E-11
  -4.007  0.663E-11  0.620E-11  0.663E-11  0.620E-11
  -3.997  0.647E-11  0.617E-11  0.647E-11  0.617E-11
  -3.987  0.631E-11  0.614E-11  0.631E-11  0.614E-11
  -3.977  0.614E-11  0.612E-11  0.614E-11  0.612E-11
  -3.967  0.598E-11  0.609E-11  0.598E-11  0.609E-11
  -3.957  0.581E-11  0.607E-11  0.581E-11  0.607E-11
  -3.947  0.564E-11  0.605E-11  0.564E-11  0.605E-11
  -3.937  0.547E-11  0.602E-11  0.547E-11  0.602E-11
  -3.927  0.530E-11  0.601E-11  0.530E-11  0.601E-11
  -3.917  0.512E-11  0.599E-11  0.512E-11  0.599E-11
  -3.907  0.494E-11  0.597E-11  0.494E-11  0.597E-11
  -3.897  0.476E-11  0.596E-11  0.476E-11  0.596E-11
  -3.887  0.458E-11  0.594E-11  0.458E-11  0.594E-11
  -3.877  0.439E-11  0.593E-11  0.439E-11  0.593E-11
  -3.867  0.421E-11  0.592E-11  0.421E-11  0.592E-11
  -3.857  0.369E-11  0.538E-11  0.369E-11  0.538E-11
  -3.847  0.359E-11  0.534E-11  0.359E-11  0.534E-11
  -3.837  0.349E-11  0.531E-11  0.349E-11  0.531E-11
  -3.827  0.340E-11  0.528E-11  0.340E-11  0.528E-11
  -3.817  0.331E-11  0.525E-11  0.331E-11  0.525E-11
  -3.807  0.322E-11  0.522E-11  0.322E-11  0.522E-11
  -3.797  0.313E-11  0.519E-11  0.313E-11  0.519E-11
  -3.787  0.304E-11  0.516E-11  0.304E-11  0.516E-11
  -3.777  0.296E-11  0.514E-11  0.296E-11  0.514E-11
  -3.767  0.287E-11  0.511E-11  0.287E-11  0.511E-11
  -3.757  0.279E-11  0.509E-11  0.279E-11  0.509E-11
  -3.747  0.272E-11  0.507E-11  0.272E-11  0.507E-11
  -3.737  0.264E-11  0.505E-11  0.264E-11  0.505E-11
  -3.727  0.256E-11  0.503E-11  0.256E-11  0.503E-11
  -3.717  0.249E-11  0.501E-11  0.249E-11  0.501E-11
  -3.707  0.242E-11  0.500E-11  0.242E-11  0.500E-11
  -3.697  0.234E-11  0.495E-11  0.234E-11  0.495E-11
  -3.687  0.228E-11  0.489E-11  0.228E-11  0.489E-11
  -3.677  0.223E-11  0.484E-11  0.223E-11  0.484E-11
  -3.667  0.220E-11  0.479E-11  0.220E-11  0.479E-11
  -3.657  0.219E-11  0.474E-11  0.219E-11  0.474E-11
  -3.647  0.219E-11  0.469E-11  0.219E-11  0.469E-11
  -3.637  0.218E-11  0.462E-11  0.218E-11  0.462E-11
  -3.627  0.217E-11  0.455E-11  0.217E-11  0.455E-11
  -3.617  0.216E-11  0.448E-11  0.216E-11  0.448E-11
  -3.607  0.214E-11  0.440E-11  0.214E-11  0.440E-11
  -3.597  0.213E-11  0.433E-11  0.213E-11  0.433E-11
  -3.587  0.212E-11  0.426E-11  0.212E-11  0.426E-11
  -3.577  0.210E-11  0.419E-11  0.210E-11  0.419E-11
  -3.567  0.209E-11  0.412E-11  0.209E-11  0.412E-11
  -3.557  0.207E-11  0.406E-11  0.207E-11  0.406E-11
  -3.547  0.205E-11  0.399E-11  0.205E-11  0.399E-11
  -3.537  0.203E-11  0.392E-11  0.203E-11  0.392E-11
  -3.527  0.201E-11  0.385E-11  0.201E-11  0.385E-11
  -3.517  0.199E-11  0.378E-11  0.199E-11  0.378E-11
  -3.507  0.197E-11  0.371E-11  0.197E-11  0.371E-11
  -3.497  0.194E-11  0.365E-11  0.194E-11  0.365E-11
  -3.487  0.192E-11  0.358E-11  0.192E-11  0.358E-11
  -3.477  0.189E-11  0.351E-11  0.189E-11  0.351E-11
  -3.467  0.187E-11  0.345E-11  0.187E-11  0.345E-11
  -3.457  0.184E-11  0.338E-11  0.184E-11  0.338E-11
  -3.447  0.181E-11  0.332E-11  0.181E-11  0.332E-11
  -3.437  0.178E-11  0.325E-11  0.178E-11  0.325E-11
  -3.427  0.175E-11  0.319E-11  0.175E-11  0.319E-11
  -3.417  0.172E-11  0.312E-11  0.172E-11  0.312E-11
  -3.407  0.169E-11  0.306E-11  0.169E-11  0.306E-11
  -3.397  0.166E-11  0.299E-11  0.166E-11  0.299E-11
  -3.387  0.162E-11  0.293E-11  0.162E-11  0.293E-11
  -3.377  0.159E-11  0.286E-11  0.159E-11  0.286E-11
  -3.367  0.156E-11  0.281E-11  0.156E-11  0.281E-11
  -3.357  0.155E-11  0.276E-11  0.155E-11  0.276E-11
  -3.347  0.154E-11  0.272E-11  0.154E-11  0.272E-11
  -3.337  0.153E-11  0.268E-11  0.153E-11  0.268E-11
  -3.327  0.152E-11  0.264E-11  0.152E-11  0.264E-11
  -3.317  0.151E-11  0.260E-11  0.151E-11  0.260E-11
  -3.307  0.150E-11  0.256E-11  0.150E-11  0.256E-11
  -3.297  0.148E-11  0.252E-11  0.148E-11  0.252E-11
  -3.287  0.147E-11  0.249E-11  0.147E-11  0.249E-11
  -3.277  0.146E-11  0.245E-11  0.146E-11  0.245E-11
  -3.267  0.145E-11  0.242E-11  0.145E-11  0.242E-11
  -3.257  0.143E-11  0.238E-11  0.143E-11  0.238E-11
  -3.247  0.142E-11  0.235E-11  0.142E-11  0.235E-11
  -3.237  0.140E-11  0.232E-11  0.140E-11  0.232E-11
  -3.227  0.139E-11  0.228E-11  0.139E-11  0.228E-11
  -3.217  0.137E-11  0.225E-11  0.137E-11  0.225E-11
  -3.207  0.136E-11  0.222E-11  0.136E-11  0.222E-11
  -3.197  0.134E-11  0.219E-11  0.134E-11  0.219E-11
  -3.187  0.133E-11  0.216E-11  0.133E-11  0.216E-11
  -3.177  0.131E-11  0.214E-11  0.131E-11  0.214E-11
  -3.167  0.129E-11  0.211E-11  0.129E-11  0.211E-11
  -3.157  0.127E-11  0.208E-11  0.127E-11  0.208E-11
  -3.147  0.125E-11  0.206E-11  0.125E-11  0.206E-11
  -3.137  0.124E-11  0.203E-11  0.124E-11  0.203E-11
  -3.127  0.122E-11  0.201E-11  0.122E-11  0.201E-11
  -3.117  0.120E-11  0.199E-11  0.120E-11  0.199E-11
  -3.107  0.118E-11  0.197E-11  0.118E-11  0.197E-11
  -3.097  0.116E-11  0.194E-11  0.116E-11  0.194E-11
  -3.087  0.114E-11  0.192E-11  0.114E-11  0.192E-11
  -3.077  0.111E-11  0.191E-11  0.111E-11  0.191E-11
  -3.067  0.109E-11  0.189E-11  0.109E-11  0.189E-11
  -3.057  0.107E-11  0.187E-11  0.107E-11  0.187E-11
  -3.047  0.105E-11  0.185E-11  0.105E-11  0.185E-11
  -3.037  0.102E-11  0.184E-11  0.102E-11  0.184E-11
  -3.027  0.100E-11  0.182E-11  0.100E-11  0.182E-11
  -3.017  0.646E-12  0.118E-11  0.646E-12  0.118E-11
  -3.007  0.629E-12  0.115E-11  0.629E-12  0.115E-11
  -2.997  0.612E-12  0.112E-11  0.612E-12  0.112E-11
  -2.987  0.596E-12  0.109E-11  0.596E-12  0.109E-11
  -2.977  0.580E-12  0.106E-11  0.580E-12  0.106E-11
  -2.967  0.564E-12  0.103E-11  0.564E-12  0.103E-11
  -2.957  0.548E-12  0.100E-11  0.548E-12  0.100E-11
  -2.947  0.532E-12  0.974E-12  0.532E-12  0.974E-12
  -2.937  0.517E-12  0.945E-12  0.517E-12  0.945E-12
  -2.927  0.502E-12  0.917E-12  0.502E-12  0.917E-12
  -2.917  0.487E-12  0.889E-12  0.487E-12  0.889E-12
  -2.907  0.472E-12  0.862E-12  0.472E-12  0.862E-12
  -2.897  0.458E-12  0.835E-12  0.458E-12  0.835E-12
  -2.887  0.444E-12  0.809E-12  0.444E-12  0.809E-12
  -2.877  0.430E-12  0.783E-12  0.430E-12  0.783E-12
  -2.867  0.416E-12  0.757E-12  0.416E-12  0.757E-12
  -2.857  0.402E-12  0.732E-12  0.402E-12  0.732E-12
  -2.847  0.389E-12  0.707E-12  0.389E-12  0.707E-12
  -2.837  0.376E-12  0.683E-12  0.376E-12  0.683E-12
  -2.827  0.363E-12  0.659E-12  0.363E-12  0.659E-12
  -2.817  0.350E-12  0.636E-12  0.350E-12  0.636E-12
  -2.807  0.338E-12  0.613E-12  0.338E-12  0.613E-12
  -2.797  0.325E-12  0.590E-12  0.325E-12  0.590E-12
  -2.787  0.313E-12  0.568E-12  0.313E-12  0.568E-12
  -2.777  0.302E-12  0.546E-12  0.302E-12  0.546E-12
  -2.767  0.290E-12  0.524E-12  0.290E-12  0.524E-12
  -2.757  0.279E-12  0.503E-12  0.279E-12  0.503E-12
  -2.747  0.267E-12  0.483E-12  0.267E-12  0.483E-12
  -2.737  0.257E-12  0.463E-12  0.257E-12  0.463E-12
  -2.727  0.246E-12  0.443E-12  0.246E-12  0.443E-12
  -2.717  0.235E-12  0.423E-12  0.235E-12  0.423E-12
  -2.707  0.225E-12  0.405E-12  0.225E-12  0.405E-12
  -2.697  0.215E-12  0.386E-12  0.215E-12  0.386E-12
  -2.687  0.205E-12  0.368E-12  0.205E-12  0.368E-12
  -2.677  0.195E-12  0.350E-12  0.195E-12  0.350E-12
  -2.667  0.186E-12  0.333E-12  0.186E-12  0.333E-12
  -2.657  0.177E-12  0.316E-12  0.177E-12  0.316E-12
  -2.647  0.168E-12  0.300E-12  0.168E-12  0.300E-12
  -2.637  0.159E-12  0.284E-12  0.159E-12  0.284E-12
  -2.627  0.151E-12  0.268E-12  0.151E-12  0.268E-12
  -2.617  0.142E-12  0.253E-12  0.142E-12  0.253E-12
  -2.607  0.134E-12  0.238E-12  0.134E-12  0.238E-12
  -2.597  0.126E-12  0.224E-12  0.126E-12  0.224E-12
  -2.587  0.119E-12  0.210E-12  0.119E-12  0.210E-12
  -2.577  0.111E-12  0.197E-12  0.111E-12  0.197E-12
  -2.567  0.104E-12  0.183E-12  0.104E-12  0.183E-12
  -2.557  0.970E-13  0.171E-12  0.970E-13  0.171E-12
  -2.547  0.903E-13  0.159E-12  0.903E-13  0.159E-12
  -2.537  0.837E-13  0.147E-12  0.837E-13  0.147E-12
  -2.527  0.774E-13  0.135E-12  0.774E-13  0.135E-12
  -2.517  0.712E-13  0.124E-12  0.712E-13  0.124E-12
  -2.507  0.653E-13  0.114E-12  0.653E-13  0.114E-12
  -2.497  0.596E-13  0.104E-12  0.596E-13  0.104E-12
  -2.487  0.542E-13  0.938E-13  0.542E-13  0.938E-13
  -2.477  0.489E-13  0.845E-13  0.489E-13  0.845E-13
  -2.467  0.439E-13  0.756E-13  0.439E-13  0.756E-13
  -2.457  0.391E-13  0.671E-13  0.391E-13  0.671E-13
  -2.447  0.345E-13  0.590E-13  0.345E-13  0.590E-13
  -2.437  0.301E-13  0.513E-13  0.301E-13  0.513E-13
  -2.427  0.260E-13  0.441E-13  0.260E-13  0.441E-13
  -2.417  0.221E-13  0.372E-13  0.221E-13  0.372E-13
  -2.407  0.183E-13  0.308E-13  0.183E-13  0.308E-13
  -2.397  0.149E-13  0.248E-13  0.149E-13  0.248E-13
  -2.387  0.116E-13  0.192E-13  0.116E-13  0.192E-13
  -2.377  0.852E-14  0.141E-13  0.852E-14  0.141E-13
  -2.367  0.568E-14  0.932E-14  0.568E-14  0.932E-14
  -2.357  0.307E-14  0.498E-14  0.307E-14  0.498E-14
  -2.347  0.669E-15  0.107E-14  0.669E-15  0.107E-14
  -2.337  0.577E-12  0.299E-13  0.577E-12  0.299E-13
  -2.327  0.141E-11  0.851E-13  0.141E-11  0.851E-13
  -2.317  0.222E-11  0.154E-12  0.222E-11  0.154E-12
  -2.307  0.302E-11  0.237E-12  0.302E-11  0.237E-12
  -2.297  0.381E-11  0.335E-12  0.381E-11  0.335E-12
  -2.287  0.459E-11  0.446E-12  0.459E-11  0.446E-12
  -2.277  0.535E-11  0.571E-12  0.535E-11  0.571E-12
  -2.267  0.610E-11  0.710E-12  0.610E-11  0.710E-12
  -2.257  0.684E-11  0.862E-12  0.684E-11  0.862E-12
  -2.247  0.756E-11  0.103E-11  0.756E-11  0.103E-11
  -2.237  0.827E-11  0.121E-11  0.827E-11  0.121E-11
  -2.227  0.897E-11  0.140E-11  0.897E-11  0.140E-11
  -2.217  0.966E-11  0.161E-11  0.966E-11  0.161E-11
  -2.207  0.103E-10  0.184E-11  0.103E-10  0.184E-11
  -2.197  0.110E-10  0.207E-11  0.110E-10  0.207E-11
  -2.187  0.116E-10  0.232E-11  0.116E-10  0.232E-11
  -2.177  0.123E-10  0.259E-11  0.123E-10  0.259E-11
  -2.167  0.129E-10  0.287E-11  0.129E-10  0.287E-11
  -2.157  0.135E-10  0.316E-11  0.135E-10  0.316E-11
  -2.147  0.141E-10  0.347E-11  0.141E-10  0.347E-11
  -2.137  0.147E-10  0.379E-11  0.147E-10  0.379E-11
  -2.127  0.152E-10  0.412E-11  0.152E-10  0.412E-11
  -2.117  0.158E-10  0.447E-11  0.158E-10  0.447E-11
  -2.107  0.163E-10  0.483E-11  0.163E-10  0.483E-11
  -2.097  0.169E-10  0.521E-11  0.169E-10  0.521E-11
  -2.087  0.174E-10  0.560E-11  0.174E-10  0.560E-11
  -2.077  0.179E-10  0.600E-11  0.179E-10  0.600E-11
  -2.067  0.184E-10  0.642E-11  0.184E-10  0.642E-11
  -2.057  0.188E-10  0.685E-11  0.188E-10  0.685E-11
  -2.047  0.193E-10  0.730E-11  0.193E-10  0.730E-11
  -2.037  0.197E-10  0.776E-11  0.197E-10  0.776E-11
  -2.027  0.202E-10  0.823E-11  0.202E-10  0.823E-11
  -2.017  0.206E-10  0.872E-11  0.206E-10  0.872E-11
  -2.007  0.210E-10  0.922E-11  0.210E-10  0.922E-11
  -1.997  0.214E-10  0.974E-11  0.214E-10  0.974E-11
  -1.987  0.218E-10  0.103E-10  0.218E-10  0.103E-10
  -1.977  0.222E-10  0.108E-10  0.222E-10  0.108E-10
  -1.967  0.225E-10  0.114E-10  0.225E-10  0.114E-10
  -1.957  0.229E-10  0.119E-10  0.229E-10  0.119E-10
  -1.947  0.232E-10  0.125E-10  0.232E-10  0.125E-10
  -1.937  0.235E-10  0.131E-10  0.235E-10  0.131E-10
  -1.927  0.238E-10  0.137E-10  0.238E-10  0.137E-10
  -1.917  0.241E-10  0.144E-10  0.241E-10  0.144E-10
  -1.907  0.244E-10  0.150E-10  0.244E-10  0.150E-10
  -1.897  0.246E-10  0.157E-10  0.246E-10  0.157E-10
  -1.887  0.249E-10  0.163E-10  0.249E-10  0.163E-10
  -1.877  0.251E-10  0.170E-10  0.251E-10  0.170E-10
  -1.867  0.254E-10  0.177E-10  0.254E-10  0.177E-10
  -1.857  0.256E-10  0.184E-10  0.256E-10  0.184E-10
  -1.847  0.258E-10  0.191E-10  0.258E-10  0.191E-10
  -1.837  0.260E-10  0.199E-10  0.260E-10  0.199E-10
  -1.827  0.261E-10  0.206E-10  0.261E-10  0.206E-10
  -1.817  0.263E-10  0.214E-10  0.263E-10  0.214E-10
  -1.807  0.264E-10  0.222E-10  0.264E-10  0.222E-10
  -1.797  0.266E-10  0.230E-10  0.266E-10  0.230E-10
  -1.787  0.267E-10  0.238E-10  0.267E-10  0.238E-10
  -1.777  0.268E-10  0.246E-10  0.268E-10  0.246E-10
  -1.767  0.269E-10  0.254E-10  0.269E-10  0.254E-10
  -1.757  0.270E-10  0.263E-10  0.270E-10  0.263E-10
  -1.747  0.271E-10  0.272E-10  0.271E-10  0.272E-10
  -1.737  0.271E-10  0.280E-10  0.271E-10  0.280E-10
  -1.727  0.272E-10  0.289E-10  0.272E-10  0.289E-10
  -1.717  0.272E-10  0.298E-10  0.272E-10  0.298E-10
  -1.707  0.272E-10  0.308E-10  0.272E-10  0.308E-10
  -1.697  0.272E-10  0.317E-10  0.272E-10  0.317E-10
  -1.687  0.272E-10  0.326E-10  0.272E-10  0.326E-10
  -1.677  0.457E-10  0.567E-10  0.457E-10  0.567E-10
  -1.667  0.464E-10  0.594E-10  0.464E-10  0.594E-10
  -1.657  0.472E-10  0.621E-10  0.472E-10  0.621E-10
  -1.647  0.479E-10  0.647E-10  0.479E-10  0.647E-10
  -1.637  0.488E-10  0.674E-10  0.488E-10  0.674E-10
  -1.627  0.497E-10  0.701E-10  0.497E-10  0.701E-10
  -1.617  0.506E-10  0.727E-10  0.506E-10  0.727E-10
  -1.607  0.516E-10  0.754E-10  0.516E-10  0.754E-10
  -1.597  0.526E-10  0.780E-10  0.526E-10  0.780E-10
  -1.587  0.537E-10  0.806E-10  0.537E-10  0.806E-10
  -1.577  0.548E-10  0.833E-10  0.548E-10  0.833E-10
  -1.567  0.559E-10  0.859E-10  0.559E-10  0.859E-10
  -1.557  0.571E-10  0.885E-10  0.571E-10  0.885E-10
  -1.547  0.584E-10  0.911E-10  0.584E-10  0.911E-10
  -1.537  0.597E-10  0.936E-10  0.597E-10  0.936E-10
  -1.527  0.610E-10  0.962E-10  0.610E-10  0.962E-10
  -1.517  0.624E-10  0.988E-10  0.624E-10  0.988E-10
  -1.507  0.638E-10  0.101E-09  0.638E-10  0.101E-09
  -1.497  0.653E-10  0.104E-09  0.653E-10  0.104E-09
  -1.487  0.668E-10  0.106E-09  0.668E-10  0.106E-09
  -1.477  0.684E-10  0.109E-09  0.684E-10  0.109E-09
  -1.467  0.700E-10  0.111E-09  0.700E-10  0.111E-09
  -1.457  0.717E-10  0.114E-09  0.717E-10  0.114E-09
  -1.447  0.734E-10  0.116E-09  0.734E-10  0.116E-09
  -1.437  0.751E-10  0.119E-09  0.751E-10  0.119E-09
  -1.427  0.769E-10  0.121E-09  0.769E-10  0.121E-09
  -1.417  0.788E-10  0.124E-09  0.788E-10  0.124E-09
  -1.407  0.807E-10  0.126E-09  0.807E-10  0.126E-09
  -1.397  0.826E-10  0.129E-09  0.826E-10  0.129E-09
  -1.387  0.861E-10  0.133E-09  0.861E-10  0.133E-09
  -1.377  0.915E-10  0.140E-09  0.915E-10  0.140E-09
  -1.367  0.982E-10  0.146E-09  0.982E-10  0.146E-09
  -1.357  0.106E-09  0.154E-09  0.106E-09  0.154E-09
  -1.347  0.116E-09  0.162E-09  0.116E-09  0.162E-09
  -1.337  0.126E-09  0.171E-09  0.126E-09  0.171E-09
  -1.327  0.138E-09  0.180E-09  0.138E-09  0.180E-09
  -1.317  0.152E-09  0.190E-09  0.152E-09  0.190E-09
  -1.307  0.166E-09  0.201E-09  0.166E-09  0.201E-09
  -1.297  0.183E-09  0.212E-09  0.183E-09  0.212E-09
  -1.287  0.200E-09  0.224E-09  0.200E-09  0.224E-09
  -1.277  0.219E-09  0.237E-09  0.219E-09  0.237E-09
  -1.267  0.239E-09  0.250E-09  0.239E-09  0.250E-09
  -1.257  0.260E-09  0.264E-09  0.260E-09  0.264E-09
  -1.247  0.283E-09  0.278E-09  0.283E-09  0.278E-09
  -1.237  0.307E-09  0.293E-09  0.307E-09  0.293E-09
  -1.227  0.332E-09  0.309E-09  0.332E-09  0.309E-09
  -1.217  0.359E-09  0.325E-09  0.359E-09  0.325E-09
  -1.207  0.387E-09  0.343E-09  0.387E-09  0.343E-09
  -1.197  0.416E-09  0.360E-09  0.416E-09  0.360E-09
  -1.187  0.446E-09  0.378E-09  0.446E-09  0.378E-09
  -1.177  0.478E-09  0.397E-09  0.478E-09  0.397E-09
  -1.167  0.512E-09  0.417E-09  0.512E-09  0.417E-09
  -1.157  0.546E-09  0.437E-09  0.546E-09  0.437E-09
  -1.147  0.582E-09  0.458E-09  0.582E-09  0.458E-09
  -1.137  0.620E-09  0.480E-09  0.620E-09  0.480E-09
  -1.127  0.658E-09  0.502E-09  0.658E-09  0.502E-09
  -1.117  0.698E-09  0.524E-09  0.698E-09  0.524E-09
  -1.107  0.739E-09  0.548E-09  0.739E-09  0.548E-09
  -1.097  0.782E-09  0.572E-09  0.782E-09  0.572E-09
  -1.087  0.826E-09  0.597E-09  0.826E-09  0.597E-09
  -1.077  0.871E-09  0.622E-09  0.871E-09  0.622E-09
  -1.067  0.918E-09  0.648E-09  0.918E-09  0.648E-09
  -1.057  0.966E-09  0.674E-09  0.966E-09  0.674E-09
  -1.047  0.101E-08  0.692E-09  0.101E-08  0.692E-09
  -1.037  0.104E-08  0.707E-09  0.104E-08  0.707E-09
  -1.027  0.105E-08  0.714E-09  0.105E-08  0.714E-09
  -1.017  0.104E-08  0.710E-09  0.104E-08  0.710E-09
  -1.007  0.100E-08  0.696E-09  0.100E-08  0.696E-09
  -0.997  0.216E-08  0.137E-08  0.216E-08  0.137E-08
  -0.987  0.195E-08  0.130E-08  0.195E-08  0.130E-08
  -0.977  0.177E-08  0.123E-08  0.177E-08  0.123E-08
  -0.967  0.161E-08  0.116E-08  0.161E-08  0.116E-08
  -0.957  0.146E-08  0.110E-08  0.146E-08  0.110E-08
  -0.947  0.134E-08  0.105E-08  0.134E-08  0.105E-08
  -0.937  0.123E-08  0.100E-08  0.123E-08  0.100E-08
  -0.927  0.115E-08  0.964E-09  0.115E-08  0.964E-09
  -0.917  0.108E-08  0.929E-09  0.108E-08  0.929E-09
  -0.907  0.104E-08  0.899E-09  0.104E-08  0.899E-09
  -0.897  0.102E-08  0.876E-09  0.102E-08  0.876E-09
  -0.887  0.101E-08  0.868E-09  0.101E-08  0.868E-09
  -0.877  0.102E-08  0.889E-09  0.102E-08  0.889E-09
  -0.867  0.102E-08  0.908E-09  0.102E-08  0.908E-09
  -0.857  0.103E-08  0.926E-09  0.103E-08  0.926E-09
  -0.847  0.104E-08  0.943E-09  0.104E-08  0.943E-09
  -0.837  0.105E-08  0.958E-09  0.105E-08  0.958E-09
  -0.827  0.106E-08  0.972E-09  0.106E-08  0.972E-09
  -0.817  0.107E-08  0.984E-09  0.107E-08  0.984E-09
  -0.807  0.108E-08  0.996E-09  0.108E-08  0.996E-09
  -0.797  0.110E-08  0.101E-08  0.110E-08  0.101E-08
  -0.787  0.111E-08  0.101E-08  0.111E-08  0.101E-08
  -0.777  0.113E-08  0.102E-08  0.113E-08  0.102E-08
  -0.767  0.115E-08  0.103E-08  0.115E-08  0.103E-08
  -0.757  0.117E-08  0.103E-08  0.117E-08  0.103E-08
  -0.747  0.119E-08  0.103E-08  0.119E-08  0.103E-08
  -0.737  0.121E-08  0.104E-08  0.121E-08  0.104E-08
  -0.727  0.123E-08  0.104E-08  0.123E-08  0.104E-08
  -0.717  0.125E-08  0.103E-08  0.125E-08  0.103E-08
  -0.707  0.128E-08  0.103E-08  0.128E-08  0.103E-08
  -0.697  0.164E-08  0.130E-08  0.164E-08  0.130E-08
  -0.687  0.223E-08  0.179E-08  0.223E-08  0.179E-08
  -0.677  0.141E-08  0.109E-08  0.141E-08  0.109E-08
  -0.667  0.143E-08  0.112E-08  0.143E-08  0.112E-08
  -0.657  0.147E-08  0.119E-08  0.147E-08  0.119E-08
  -0.647  0.151E-08  0.131E-08  0.151E-08  0.131E-08
  -0.637  0.155E-08  0.144E-08  0.155E-08  0.144E-08
  -0.627  0.159E-08  0.158E-08  0.159E-08  0.158E-08
  -0.617  0.162E-08  0.173E-08  0.162E-08  0.173E-08
  -0.607  0.165E-08  0.190E-08  0.165E-08  0.190E-08
  -0.597  0.168E-08  0.209E-08  0.168E-08  0.209E-08
  -0.587  0.134E-08  0.141E-08  0.134E-08  0.141E-08
  -0.577  0.128E-08  0.141E-08  0.128E-08  0.141E-08
  -0.567  0.123E-08  0.142E-08  0.123E-08  0.142E-08
  -0.557  0.120E-08  0.143E-08  0.120E-08  0.143E-08
  -0.547  0.118E-08  0.143E-08  0.118E-08  0.143E-08
  -0.537  0.115E-08  0.144E-08  0.115E-08  0.144E-08
  -0.527  0.113E-08  0.145E-08  0.113E-08  0.145E-08
  -0.517  0.110E-08  0.146E-08  0.110E-08  0.146E-08
  -0.507  0.108E-08  0.146E-08  0.108E-08  0.146E-08
  -0.497  0.106E-08  0.147E-08  0.106E-08  0.147E-08
  -0.487  0.104E-08  0.148E-08  0.104E-08  0.148E-08
  -0.477  0.103E-08  0.148E-08  0.103E-08  0.148E-08
  -0.467  0.101E-08  0.149E-08  0.101E-08  0.149E-08
  -0.457  0.996E-09  0.149E-08  0.996E-09  0.149E-08
  -0.447  0.983E-09  0.150E-08  0.983E-09  0.150E-08
  -0.437  0.971E-09  0.150E-08  0.971E-09  0.150E-08
  -0.427  0.960E-09  0.151E-08  0.960E-09  0.151E-08
  -0.417  0.951E-09  0.151E-08  0.951E-09  0.151E-08
  -0.407  0.942E-09  0.152E-08  0.942E-09  0.152E-08
  -0.397  0.933E-09  0.152E-08  0.933E-09  0.152E-08
  -0.387  0.925E-09  0.152E-08  0.925E-09  0.152E-08
  -0.377  0.917E-09  0.153E-08  0.917E-09  0.153E-08
  -0.367  0.910E-09  0.153E-08  0.910E-09  0.153E-08
  -0.357  0.902E-09  0.153E-08  0.902E-09  0.153E-08
  -0.347  0.894E-09  0.153E-08  0.894E-09  0.153E-08
  -0.337  0.887E-09  0.152E-08  0.887E-09  0.152E-08
  -0.327  0.863E-09  0.149E-08  0.863E-09  0.149E-08
  -0.317  0.857E-09  0.149E-08  0.857E-09  0.149E-08
  -0.307  0.851E-09  0.149E-08  0.851E-09  0.149E-08
  -0.297  0.845E-09  0.149E-08  0.845E-09  0.149E-08
  -0.287  0.839E-09  0.149E-08  0.839E-09  0.149E-08
  -0.277  0.833E-09  0.149E-08  0.833E-09  0.149E-08
  -0.267  0.828E-09  0.148E-08  0.828E-09  0.148E-08
  -0.257  0.822E-09  0.148E-08  0.822E-09  0.148E-08
  -0.247  0.817E-09  0.148E-08  0.817E-09  0.148E-08
  -0.237  0.812E-09  0.147E-08  0.812E-09  0.147E-08
  -0.227  0.807E-09  0.147E-08  0.807E-09  0.147E-08
  -0.217  0.802E-09  0.146E-08  0.802E-09  0.146E-08
  -0.207  0.798E-09  0.146E-08  0.798E-09  0.146E-08
  -0.197  0.793E-09  0.145E-08  0.793E-09  0.145E-08
  -0.187  0.789E-09  0.144E-08  0.789E-09  0.144E-08
  -0.177  0.785E-09  0.144E-08  0.785E-09  0.144E-08
  -0.167  0.781E-09  0.143E-08  0.781E-09  0.143E-08
  -0.157  0.778E-09  0.142E-08  0.778E-09  0.142E-08
  -0.147  0.774E-09  0.141E-08  0.774E-09  0.141E-08
  -0.137  0.771E-09  0.140E-08  0.771E-09  0.140E-08
  -0.127  0.767E-09  0.139E-08  0.767E-09  0.139E-08
  -0.117  0.764E-09  0.138E-08  0.764E-09  0.138E-08
  -0.107  0.762E-09  0.137E-08  0.762E-09  0.137E-08
  -0.097  0.759E-09  0.136E-08  0.759E-09  0.136E-08
  -0.087  0.757E-09  0.135E-08  0.757E-09  0.135E-08
  -0.077  0.755E-09  0.134E-08  0.755E-09  0.134E-08
  -0.067  0.753E-09  0.134E-08  0.753E-09  0.134E-08
  -0.057  0.751E-09  0.133E-08  0.751E-09  0.133E-08
  -0.047  0.750E-09  0.132E-08  0.750E-09  0.132E-08
  -0.037  0.748E-09  0.131E-08  0.748E-09  0.131E-08
  -0.027  0.747E-09  0.131E-08  0.747E-09  0.131E-08
  -0.017  0.746E-09  0.130E-08  0.746E-09  0.130E-08
  -0.007  0.745E-09  0.129E-08  0.745E-09  0.129E-08
   0.003  0.744E-09  0.128E-08  0.744E-09  0.128E-08
   0.013  0.743E-09  0.128E-08  0.743E-09  0.128E-08
   0.023  0.743E-09  0.127E-08  0.743E-09  0.127E-08
   0.033  0.742E-09  0.126E-08  0.742E-09  0.126E-08
   0.043  0.741E-09  0.125E-08  0.741E-09  0.125E-08
   0.053  0.741E-09  0.124E-08  0.741E-09  0.124E-08
   0.063  0.740E-09  0.123E-08  0.740E-09  0.123E-08
   0.073  0.740E-09  0.123E-08  0.740E-09  0.123E-08
   0.083  0.740E-09  0.122E-08  0.740E-09  0.122E-08
   0.093  0.739E-09  0.121E-08  0.739E-09  0.121E-08
   0.103  0.739E-09  0.120E-08  0.739E-09  0.120E-08
   0.113  0.738E-09  0.119E-08  0.738E-09  0.119E-08
   0.123  0.738E-09  0.118E-08  0.738E-09  0.118E-08
   0.133  0.738E-09  0.117E-08  0.738E-09  0.117E-08
   0.143  0.738E-09  0.116E-08  0.738E-09  0.116E-08
   0.153  0.738E-09  0.115E-08  0.738E-09  0.115E-08
   0.163  0.737E-09  0.114E-08  0.737E-09  0.114E-08
   0.173  0.737E-09  0.113E-08  0.737E-09  0.113E-08
   0.183  0.737E-09  0.112E-08  0.737E-09  0.112E-08
   0.193  0.737E-09  0.111E-08  0.737E-09  0.111E-08
   0.203  0.738E-09  0.110E-08  0.738E-09  0.110E-08
   0.213  0.738E-09  0.109E-08  0.738E-09  0.109E-08
   0.223  0.738E-09  0.108E-08  0.738E-09  0.108E-08
   0.233  0.738E-09  0.107E-08  0.738E-09  0.107E-08
   0.243  0.738E-09  0.106E-08  0.738E-09  0.106E-08
   0.253  0.737E-09  0.105E-08  0.737E-09  0.105E-08
   0.263  0.737E-09  0.104E-08  0.737E-09  0.104E-08
   0.273  0.737E-09  0.103E-08  0.737E-09  0.103E-08
   0.283  0.737E-09  0.102E-08  0.737E-09  0.102E-08
   0.293  0.736E-09  0.101E-08  0.736E-09  0.101E-08
   0.303  0.736E-09  0.100E-08  0.736E-09  0.100E-08
   0.313  0.735E-09  0.992E-09  0.735E-09  0.992E-09
   0.323  0.735E-09  0.983E-09  0.735E-09  0.983E-09
   0.333  0.734E-09  0.974E-09  0.734E-09  0.974E-09
   0.343  0.733E-09  0.966E-09  0.733E-09  0.966E-09
   0.353  0.733E-09  0.957E-09  0.733E-09  0.957E-09
   0.363  0.732E-09  0.949E-09  0.732E-09  0.949E-09
   0.373  0.731E-09  0.940E-09  0.731E-09  0.940E-09
   0.383  0.730E-09  0.932E-09  0.730E-09  0.932E-09
   0.393  0.729E-09  0.924E-09  0.729E-09  0.924E-09
   0.403  0.728E-09  0.916E-09  0.728E-09  0.916E-09
   0.413  0.727E-09  0.908E-09  0.727E-09  0.908E-09
   0.423  0.727E-09  0.901E-09  0.727E-09  0.901E-09
   0.433  0.730E-09  0.896E-09  0.730E-09  0.896E-09
   0.443  0.734E-09  0.891E-09  0.734E-09  0.891E-09
   0.453  0.740E-09  0.888E-09  0.740E-09  0.888E-09
   0.463  0.748E-09  0.886E-09  0.748E-09  0.886E-09
   0.473  0.758E-09  0.885E-09  0.758E-09  0.885E-09
   0.483  0.770E-09  0.888E-09  0.770E-09  0.888E-09
   0.493  0.783E-09  0.896E-09  0.783E-09  0.896E-09
   0.503  0.796E-09  0.905E-09  0.796E-09  0.905E-09
   0.513  0.809E-09  0.914E-09  0.809E-09  0.914E-09
   0.523  0.822E-09  0.923E-09  0.822E-09  0.923E-09
   0.533  0.835E-09  0.933E-09  0.835E-09  0.933E-09
   0.543  0.848E-09  0.942E-09  0.848E-09  0.942E-09
   0.553  0.862E-09  0.952E-09  0.862E-09  0.952E-09
   0.563  0.875E-09  0.962E-09  0.875E-09  0.962E-09
   0.573  0.888E-09  0.972E-09  0.888E-09  0.972E-09
   0.583  0.902E-09  0.983E-09  0.902E-09  0.983E-09
   0.593  0.915E-09  0.993E-09  0.915E-09  0.993E-09
   0.603  0.929E-09  0.100E-08  0.929E-09  0.100E-08
   0.613  0.943E-09  0.102E-08  0.943E-09  0.102E-08
   0.623  0.956E-09  0.103E-08  0.956E-09  0.103E-08
   0.633  0.970E-09  0.104E-08  0.970E-09  0.104E-08
   0.643  0.984E-09  0.105E-08  0.984E-09  0.105E-08
   0.653  0.998E-09  0.106E-08  0.998E-09  0.106E-08
   0.663  0.101E-08  0.107E-08  0.101E-08  0.107E-08
   0.673  0.103E-08  0.109E-08  0.103E-08  0.109E-08
   0.683  0.104E-08  0.110E-08  0.104E-08  0.110E-08
   0.693  0.105E-08  0.111E-08  0.105E-08  0.111E-08
   0.703  0.107E-08  0.112E-08  0.107E-08  0.112E-08
   0.713  0.108E-08  0.114E-08  0.108E-08  0.114E-08
   0.723  0.110E-08  0.115E-08  0.110E-08  0.115E-08
   0.733  0.111E-08  0.116E-08  0.111E-08  0.116E-08
   0.743  0.113E-08  0.118E-08  0.113E-08  0.118E-08
   0.753  0.114E-08  0.119E-08  0.114E-08  0.119E-08
   0.763  0.115E-08  0.120E-08  0.115E-08  0.120E-08
   0.773  0.117E-08  0.122E-08  0.117E-08  0.122E-08
   0.783  0.118E-08  0.123E-08  0.118E-08  0.123E-08
   0.793  0.120E-08  0.125E-08  0.120E-08  0.125E-08
   0.803  0.121E-08  0.126E-08  0.121E-08  0.126E-08
   0.813  0.123E-08  0.128E-08  0.123E-08  0.128E-08
   0.823  0.124E-08  0.129E-08  0.124E-08  0.129E-08
   0.833  0.126E-08  0.131E-08  0.126E-08  0.131E-08
   0.843  0.127E-08  0.132E-08  0.127E-08  0.132E-08
   0.853  0.128E-08  0.134E-08  0.128E-08  0.134E-08
   0.863  0.552E-05  0.585E-05  0.552E-05  0.585E-05
   0.873  0.110E-03  0.110E-03  0.110E-03  0.110E-03
   0.883  0.207E-03  0.208E-03  0.207E-03  0.208E-03
   0.893  0.297E-03  0.298E-03  0.297E-03  0.298E-03
   0.903  0.380E-03  0.381E-03  0.380E-03  0.381E-03
   0.913  0.455E-03  0.456E-03  0.455E-03  0.456E-03
   0.923  0.247E-03  0.247E-03  0.247E-03  0.247E-03
   0.933  0.246E-03  0.246E-03  0.246E-03  0.246E-03
   0.943  0.245E-03  0.245E-03  0.245E-03  0.245E-03
   0.953  0.244E-03  0.243E-03  0.244E-03  0.243E-03
   0.963  0.242E-03  0.241E-03  0.242E-03  0.241E-03
   0.973  0.240E-03  0.239E-03  0.240E-03  0.239E-03
   0.983  0.237E-03  0.236E-03  0.237E-03  0.236E-03
   0.993  0.234E-03  0.233E-03  0.234E-03  0.233E-03
   1.003  0.231E-03  0.230E-03  0.231E-03  0.230E-03
   1.013  0.227E-03  0.226E-03  0.227E-03  0.226E-03
   1.023  0.223E-03  0.222E-03  0.223E-03  0.222E-03
   1.033  0.216E-03  0.214E-03  0.216E-03  0.214E-03
   1.043  0.201E-03  0.200E-03  0.201E-03  0.200E-03
   1.053  0.187E-03  0.186E-03  0.187E-03  0.186E-03
   1.063  0.175E-03  0.174E-03  0.175E-03  0.174E-03
   1.073  0.163E-03  0.162E-03  0.163E-03  0.162E-03
   1.083  0.153E-03  0.152E-03  0.153E-03  0.152E-03
   1.093  0.147E-03  0.146E-03  0.147E-03  0.146E-03
   1.103  0.144E-03  0.143E-03  0.144E-03  0.143E-03
   1.113  0.140E-03  0.139E-03  0.140E-03  0.139E-03
   1.123  0.137E-03  0.136E-03  0.137E-03  0.136E-03
   1.133  0.133E-03  0.132E-03  0.133E-03  0.132E-03
   1.143  0.129E-03  0.128E-03  0.129E-03  0.128E-03
   1.153  0.126E-03  0.125E-03  0.126E-03  0.125E-03
   1.163  0.122E-03  0.121E-03  0.122E-03  0.121E-03
   1.173  0.118E-03  0.117E-03  0.118E-03  0.117E-03
   1.183  0.114E-03  0.113E-03  0.114E-03  0.113E-03
   1.193  0.110E-03  0.109E-03  0.110E-03  0.109E-03
   1.203  0.107E-03  0.105E-03  0.107E-03  0.105E-03
   1.213  0.103E-03  0.101E-03  0.103E-03  0.101E-03
   1.223  0.985E-04  0.974E-04  0.985E-04  0.974E-04
   1.233  0.945E-04  0.933E-04  0.945E-04  0.933E-04
   1.243  0.904E-04  0.893E-04  0.904E-04  0.893E-04
   1.253  0.862E-04  0.851E-04  0.862E-04  0.851E-04
   1.263  0.765E-04  0.755E-04  0.765E-04  0.755E-04
   1.273  0.732E-04  0.723E-04  0.732E-04  0.723E-04
   1.283  0.700E-04  0.692E-04  0.700E-04  0.692E-04
   1.293  0.670E-04  0.662E-04  0.670E-04  0.662E-04
   1.303  0.642E-04  0.634E-04  0.642E-04  0.634E-04
   1.313  0.614E-04  0.607E-04  0.614E-04  0.607E-04
   1.323  0.588E-04  0.581E-04  0.588E-04  0.581E-04
   1.333  0.564E-04  0.557E-04  0.564E-04  0.557E-04
   1.343  0.540E-04  0.534E-04  0.540E-04  0.534E-04
   1.353  0.519E-04  0.513E-04  0.519E-04  0.513E-04
   1.363  0.498E-04  0.493E-04  0.498E-04  0.493E-04
   1.373  0.481E-04  0.476E-04  0.481E-04  0.476E-04
   1.383  0.464E-04  0.460E-04  0.464E-04  0.460E-04
   1.393  0.448E-04  0.443E-04  0.448E-04  0.443E-04
   1.403  0.431E-04  0.427E-04  0.431E-04  0.427E-04
   1.413  0.414E-04  0.411E-04  0.414E-04  0.411E-04
   1.423  0.398E-04  0.395E-04  0.398E-04  0.395E-04
   1.433  0.381E-04  0.379E-04  0.381E-04  0.379E-04
   1.443  0.365E-04  0.363E-04  0.365E-04  0.363E-04
   1.453  0.348E-04  0.346E-04  0.348E-04  0.346E-04
   1.463  0.332E-04  0.330E-04  0.332E-04  0.330E-04
   1.473  0.316E-04  0.314E-04  0.316E-04  0.314E-04
   1.483  0.299E-04  0.298E-04  0.299E-04  0.298E-04
   1.493  0.283E-04  0.282E-04  0.283E-04  0.282E-04
   1.503  0.266E-04  0.266E-04  0.266E-04  0.266E-04
   1.513  0.250E-04  0.250E-04  0.250E-04  0.250E-04
   1.523  0.233E-04  0.233E-04  0.233E-04  0.233E-04
   1.533  0.217E-04  0.217E-04  0.217E-04  0.217E-04
   1.543  0.199E-04  0.200E-04  0.199E-04  0.200E-04
   1.553  0.183E-04  0.183E-04  0.183E-04  0.183E-04
   1.563  0.168E-04  0.169E-04  0.168E-04  0.169E-04
   1.573  0.156E-04  0.157E-04  0.156E-04  0.157E-04
   1.583  0.146E-04  0.147E-04  0.146E-04  0.147E-04
   1.593  0.137E-04  0.138E-04  0.137E-04  0.138E-04
   1.603  0.131E-04  0.132E-04  0.131E-04  0.132E-04
   1.613  0.124E-04  0.125E-04  0.124E-04  0.125E-04
   1.623  0.118E-04  0.119E-04  0.118E-04  0.119E-04
   1.633  0.113E-04  0.113E-04  0.113E-04  0.113E-04
   1.643  0.107E-04  0.108E-04  0.107E-04  0.108E-04
   1.653  0.102E-04  0.102E-04  0.102E-04  0.102E-04
   1.663  0.964E-05  0.971E-05  0.964E-05  0.971E-05
   1.673  0.916E-05  0.922E-05  0.916E-05  0.922E-05
   1.683  0.869E-05  0.875E-05  0.869E-05  0.875E-05
   1.693  0.198E-04  0.197E-04  0.198E-04  0.197E-04
   1.703  0.325E-04  0.328E-04  0.325E-04  0.328E-04
   1.713  0.444E-04  0.449E-04  0.444E-04  0.449E-04
   1.723  0.556E-04  0.559E-04  0.556E-04  0.559E-04
   1.733  0.659E-04  0.660E-04  0.659E-04  0.660E-04
   1.743  0.405E-04  0.400E-04  0.405E-04  0.400E-04
   1.753  0.402E-04  0.397E-04  0.402E-04  0.397E-04
   1.763  0.398E-04  0.395E-04  0.398E-04  0.395E-04
   1.773  0.394E-04  0.392E-04  0.394E-04  0.392E-04
   1.783  0.390E-04  0.389E-04  0.390E-04  0.389E-04
   1.793  0.385E-04  0.386E-04  0.385E-04  0.386E-04
   1.803  0.380E-04  0.383E-04  0.380E-04  0.383E-04
   1.813  0.374E-04  0.379E-04  0.374E-04  0.379E-04
   1.823  0.368E-04  0.375E-04  0.368E-04  0.375E-04
   1.833  0.361E-04  0.370E-04  0.361E-04  0.370E-04
   1.843  0.354E-04  0.365E-04  0.354E-04  0.365E-04
   1.853  0.347E-04  0.360E-04  0.347E-04  0.360E-04
   1.863  0.329E-04  0.345E-04  0.329E-04  0.345E-04
   1.873  0.308E-04  0.325E-04  0.308E-04  0.325E-04
   1.883  0.288E-04  0.306E-04  0.288E-04  0.306E-04
   1.893  0.270E-04  0.288E-04  0.270E-04  0.288E-04
   1.903  0.253E-04  0.271E-04  0.253E-04  0.271E-04
   1.913  0.237E-04  0.254E-04  0.237E-04  0.254E-04
   1.923  0.231E-04  0.247E-04  0.231E-04  0.247E-04
   1.933  0.225E-04  0.241E-04  0.225E-04  0.241E-04
   1.943  0.220E-04  0.236E-04  0.220E-04  0.236E-04
   1.953  0.215E-04  0.231E-04  0.215E-04  0.231E-04
   1.963  0.210E-04  0.226E-04  0.210E-04  0.226E-04
   1.973  0.206E-04  0.221E-04  0.206E-04  0.221E-04
   1.983  0.201E-04  0.217E-04  0.201E-04  0.217E-04
   1.993  0.197E-04  0.212E-04  0.197E-04  0.212E-04
   2.003  0.192E-04  0.207E-04  0.192E-04  0.207E-04
   2.013  0.188E-04  0.203E-04  0.188E-04  0.203E-04
   2.023  0.184E-04  0.199E-04  0.184E-04  0.199E-04
   2.033  0.180E-04  0.194E-04  0.180E-04  0.194E-04
   2.043  0.176E-04  0.190E-04  0.176E-04  0.190E-04
   2.053  0.173E-04  0.186E-04  0.173E-04  0.186E-04
   2.063  0.169E-04  0.182E-04  0.169E-04  0.182E-04
   2.073  0.165E-04  0.178E-04  0.165E-04  0.178E-04
   2.083  0.161E-04  0.173E-04  0.161E-04  0.173E-04
   2.093  0.148E-04  0.159E-04  0.148E-04  0.159E-04
   2.103  0.145E-04  0.155E-04  0.145E-04  0.155E-04
   2.113  0.142E-04  0.152E-04  0.142E-04  0.152E-04
   2.123  0.139E-04  0.149E-04  0.139E-04  0.149E-04
   2.133  0.137E-04  0.146E-04  0.137E-04  0.146E-04
   2.143  0.135E-04  0.143E-04  0.135E-04  0.143E-04
   2.153  0.133E-04  0.141E-04  0.133E-04  0.141E-04
   2.163  0.131E-04  0.139E-04  0.131E-04  0.139E-04
   2.173  0.130E-04  0.137E-04  0.130E-04  0.137E-04
   2.183  0.128E-04  0.135E-04  0.128E-04  0.135E-04
   2.193  0.127E-04  0.134E-04  0.127E-04  0.134E-04
   2.203  0.127E-04  0.133E-04  0.127E-04  0.133E-04
   2.213  0.126E-04  0.132E-04  0.126E-04  0.132E-04
   2.223  0.126E-04  0.131E-04  0.126E-04  0.131E-04
   2.233  0.126E-04  0.131E-04  0.126E-04  0.131E-04
   2.243  0.126E-04  0.130E-04  0.126E-04  0.130E-04
   2.253  0.125E-04  0.130E-04  0.125E-04  0.130E-04
   2.263  0.125E-04  0.129E-04  0.125E-04  0.129E-04
   2.273  0.125E-04  0.129E-04  0.125E-04  0.129E-04
   2.283  0.125E-04  0.128E-04  0.125E-04  0.128E-04
   2.293  0.125E-04  0.128E-04  0.125E-04  0.128E-04
   2.303  0.124E-04  0.127E-04  0.124E-04  0.127E-04
   2.313  0.124E-04  0.127E-04  0.124E-04  0.127E-04
   2.323  0.124E-04  0.126E-04  0.124E-04  0.126E-04
   2.333  0.124E-04  0.126E-04  0.124E-04  0.126E-04
   2.343  0.124E-04  0.125E-04  0.124E-04  0.125E-04
   2.353  0.124E-04  0.125E-04  0.124E-04  0.125E-04
   2.363  0.124E-04  0.124E-04  0.124E-04  0.124E-04
   2.373  0.123E-04  0.123E-04  0.123E-04  0.123E-04
   2.383  0.122E-04  0.122E-04  0.122E-04  0.122E-04
   2.393  0.121E-04  0.120E-04  0.121E-04  0.120E-04
   2.403  0.120E-04  0.119E-04  0.120E-04  0.119E-04
   2.413  0.119E-04  0.118E-04  0.119E-04  0.118E-04
   2.423  0.118E-04  0.117E-04  0.118E-04  0.117E-04
   2.433  0.118E-04  0.116E-04  0.118E-04  0.116E-04
   2.443  0.118E-04  0.116E-04  0.118E-04  0.116E-04
   2.453  0.119E-04  0.116E-04  0.119E-04  0.116E-04
   2.463  0.119E-04  0.117E-04  0.119E-04  0.117E-04
   2.473  0.119E-04  0.117E-04  0.119E-04  0.117E-04
   2.483  0.120E-04  0.117E-04  0.120E-04  0.117E-04
   2.493  0.120E-04  0.117E-04  0.120E-04  0.117E-04
   2.503  0.120E-04  0.117E-04  0.120E-04  0.117E-04
   2.513  0.120E-04  0.117E-04  0.120E-04  0.117E-04
   2.523  0.121E-04  0.117E-04  0.121E-04  0.117E-04
   2.533  0.121E-04  0.117E-04  0.121E-04  0.117E-04
   2.543  0.121E-04  0.117E-04  0.121E-04  0.117E-04
   2.553  0.121E-04  0.117E-04  0.121E-04  0.117E-04
   2.563  0.121E-04  0.118E-04  0.121E-04  0.118E-04
   2.573  0.122E-04  0.118E-04  0.122E-04  0.118E-04
   2.583  0.122E-04  0.118E-04  0.122E-04  0.118E-04
   2.593  0.122E-04  0.118E-04  0.122E-04  0.118E-04
   2.603  0.122E-04  0.118E-04  0.122E-04  0.118E-04
   2.613  0.123E-04  0.119E-04  0.123E-04  0.119E-04
   2.623  0.123E-04  0.119E-04  0.123E-04  0.119E-04
   2.633  0.123E-04  0.119E-04  0.123E-04  0.119E-04
   2.643  0.124E-04  0.120E-04  0.124E-04  0.120E-04
   2.653  0.124E-04  0.120E-04  0.124E-04  0.120E-04
   2.663  0.124E-04  0.121E-04  0.124E-04  0.121E-04
   2.673  0.125E-04  0.121E-04  0.125E-04  0.121E-04
   2.683  0.125E-04  0.121E-04  0.125E-04  0.121E-04
   2.693  0.126E-04  0.122E-04  0.126E-04  0.122E-04
   2.703  0.127E-04  0.122E-04  0.127E-04  0.122E-04
   2.713  0.127E-04  0.123E-04  0.127E-04  0.123E-04
   2.723  0.128E-04  0.124E-04  0.128E-04  0.124E-04
   2.733  0.129E-04  0.125E-04  0.129E-04  0.125E-04
   2.743  0.131E-04  0.126E-04  0.131E-04  0.126E-04
   2.753  0.129E-04  0.125E-04  0.129E-04  0.125E-04
   2.763  0.130E-04  0.126E-04  0.130E-04  0.126E-04
   2.773  0.130E-04  0.126E-04  0.130E-04  0.126E-04
   2.783  0.131E-04  0.127E-04  0.131E-04  0.127E-04
   2.793  0.131E-04  0.128E-04  0.131E-04  0.128E-04
   2.803  0.132E-04  0.128E-04  0.132E-04  0.128E-04
   2.813  0.132E-04  0.129E-04  0.132E-04  0.129E-04
   2.823  0.133E-04  0.130E-04  0.133E-04  0.130E-04
   2.833  0.134E-04  0.131E-04  0.134E-04  0.131E-04
   2.843  0.134E-04  0.132E-04  0.134E-04  0.132E-04
   2.853  0.135E-04  0.133E-04  0.135E-04  0.133E-04
   2.863  0.136E-04  0.134E-04  0.136E-04  0.134E-04
   2.873  0.137E-04  0.135E-04  0.137E-04  0.135E-04
   2.883  0.138E-04  0.136E-04  0.138E-04  0.136E-04
   2.893  0.139E-04  0.137E-04  0.139E-04  0.137E-04
   2.903  0.140E-04  0.138E-04  0.140E-04  0.138E-04
   2.913  0.142E-04  0.140E-04  0.142E-04  0.140E-04
   2.923  0.143E-04  0.141E-04  0.143E-04  0.141E-04
   2.933  0.143E-04  0.140E-04  0.143E-04  0.140E-04
   2.943  0.144E-04  0.141E-04  0.144E-04  0.141E-04
   2.953  0.145E-04  0.142E-04  0.145E-04  0.142E-04
   2.963  0.146E-04  0.143E-04  0.146E-04  0.143E-04
   2.973  0.147E-04  0.144E-04  0.147E-04  0.144E-04
   2.983  0.148E-04  0.145E-04  0.148E-04  0.145E-04
   2.993  0.149E-04  0.146E-04  0.149E-04  0.146E-04
   3.003  0.150E-04  0.147E-04  0.150E-04  0.147E-04
   3.013  0.151E-04  0.148E-04  0.151E-04  0.148E-04
   3.023  0.152E-04  0.149E-04  0.152E-04  0.149E-04
   3.033  0.153E-04  0.150E-04  0.153E-04  0.150E-04
   3.043  0.154E-04  0.151E-04  0.154E-04  0.151E-04
   3.053  0.156E-04  0.152E-04  0.156E-04  0.152E-04
   3.063  0.158E-04  0.154E-04  0.158E-04  0.154E-04
   3.073  0.159E-04  0.156E-04  0.159E-04  0.156E-04
   3.083  0.161E-04  0.158E-04  0.161E-04  0.158E-04
   3.093  0.162E-04  0.159E-04  0.162E-04  0.159E-04
   3.103  0.164E-04  0.161E-04  0.164E-04  0.161E-04
   3.113  0.166E-04  0.163E-04  0.166E-04  0.163E-04
   3.123  0.168E-04  0.166E-04  0.168E-04  0.166E-04
   3.133  0.171E-04  0.168E-04  0.171E-04  0.168E-04
   3.143  0.174E-04  0.171E-04  0.174E-04  0.171E-04
   3.153  0.177E-04  0.174E-04  0.177E-04  0.174E-04
   3.163  0.181E-04  0.178E-04  0.181E-04  0.178E-04
   3.173  0.186E-04  0.183E-04  0.186E-04  0.183E-04
   3.183  0.192E-04  0.189E-04  0.192E-04  0.189E-04
   3.193  0.198E-04  0.195E-04  0.198E-04  0.195E-04
   3.203  0.205E-04  0.201E-04  0.205E-04  0.201E-04
   3.213  0.212E-04  0.208E-04  0.212E-04  0.208E-04
   3.223  0.220E-04  0.216E-04  0.220E-04  0.216E-04
   3.233  0.229E-04  0.225E-04  0.229E-04  0.225E-04
   3.243  0.238E-04  0.234E-04  0.238E-04  0.234E-04
   3.253  0.248E-04  0.244E-04  0.248E-04  0.244E-04
   3.263  0.258E-04  0.254E-04  0.258E-04  0.254E-04
   3.273  0.258E-04  0.253E-04  0.258E-04  0.253E-04
   3.283  0.255E-04  0.250E-04  0.255E-04  0.250E-04
   3.293  0.253E-04  0.247E-04  0.253E-04  0.247E-04
   3.303  0.250E-04  0.244E-04  0.250E-04  0.244E-04
   3.313  0.248E-04  0.241E-04  0.248E-04  0.241E-04
   3.323  0.245E-04  0.238E-04  0.245E-04  0.238E-04
   3.333  0.242E-04  0.234E-04  0.242E-04  0.234E-04
   3.343  0.239E-04  0.231E-04  0.239E-04  0.231E-04
   3.353  0.236E-04  0.228E-04  0.236E-04  0.228E-04
   3.363  0.233E-04  0.224E-04  0.233E-04  0.224E-04
   3.373  0.230E-04  0.221E-04  0.230E-04  0.221E-04
   3.383  0.226E-04  0.217E-04  0.226E-04  0.217E-04
   3.393  0.223E-04  0.213E-04  0.223E-04  0.213E-04
   3.403  0.219E-04  0.209E-04  0.219E-04  0.209E-04
   3.413  0.215E-04  0.206E-04  0.215E-04  0.206E-04
   3.423  0.211E-04  0.202E-04  0.211E-04  0.202E-04
   3.433  0.207E-04  0.198E-04  0.207E-04  0.198E-04
   3.443  0.203E-04  0.193E-04  0.203E-04  0.193E-04
   3.453  0.198E-04  0.189E-04  0.198E-04  0.189E-04
   3.463  0.194E-04  0.185E-04  0.194E-04  0.185E-04
   3.473  0.189E-04  0.181E-04  0.189E-04  0.181E-04
   3.483  0.185E-04  0.177E-04  0.185E-04  0.177E-04
   3.493  0.180E-04  0.172E-04  0.180E-04  0.172E-04
   3.503  0.175E-04  0.168E-04  0.175E-04  0.168E-04
   3.513  0.170E-04  0.163E-04  0.170E-04  0.163E-04
   3.523  0.165E-04  0.159E-04  0.165E-04  0.159E-04
   3.533  0.160E-04  0.154E-04  0.160E-04  0.154E-04
   3.543  0.155E-04  0.150E-04  0.155E-04  0.150E-04
   3.553  0.140E-04  0.135E-04  0.140E-04  0.135E-04
   3.563  0.123E-04  0.118E-04  0.123E-04  0.118E-04
   3.573  0.106E-04  0.101E-04  0.106E-04  0.101E-04
   3.583  0.882E-05  0.840E-05  0.882E-05  0.840E-05
   3.593  0.681E-05  0.648E-05  0.681E-05  0.648E-05
   3.603  0.325E-05  0.307E-05  0.325E-05  0.307E-05
   3.613  0.334E-05  0.318E-05  0.334E-05  0.318E-05
   3.623  0.343E-05  0.330E-05  0.343E-05  0.330E-05
   3.633  0.353E-05  0.343E-05  0.353E-05  0.343E-05
   3.643  0.364E-05  0.356E-05  0.364E-05  0.356E-05
   3.653  0.375E-05  0.371E-05  0.375E-05  0.371E-05
   3.663  0.386E-05  0.385E-05  0.386E-05  0.385E-05
   3.673  0.399E-05  0.401E-05  0.399E-05  0.401E-05
   3.683  0.412E-05  0.417E-05  0.412E-05  0.417E-05
   3.693  0.426E-05  0.433E-05  0.426E-05  0.433E-05
   3.703  0.440E-05  0.451E-05  0.440E-05  0.451E-05
   3.713  0.455E-05  0.469E-05  0.455E-05  0.469E-05
   3.723  0.477E-05  0.493E-05  0.477E-05  0.493E-05
   3.733  0.508E-05  0.527E-05  0.508E-05  0.527E-05
   3.743  0.549E-05  0.571E-05  0.549E-05  0.571E-05
   3.753  0.652E-05  0.678E-05  0.652E-05  0.678E-05
   3.763  0.144E-04  0.145E-04  0.144E-04  0.145E-04
   3.773  0.185E-04  0.186E-04  0.185E-04  0.186E-04
   3.783  0.188E-04  0.190E-04  0.188E-04  0.190E-04
   3.793  0.194E-04  0.196E-04  0.194E-04  0.196E-04
   3.803  0.201E-04  0.205E-04  0.201E-04  0.205E-04
   3.813  0.211E-04  0.215E-04  0.211E-04  0.215E-04
   3.823  0.223E-04  0.228E-04  0.223E-04  0.228E-04
   3.833  0.237E-04  0.244E-04  0.237E-04  0.244E-04
   3.843  0.254E-04  0.261E-04  0.254E-04  0.261E-04
   3.853  0.272E-04  0.281E-04  0.272E-04  0.281E-04
   3.863  0.293E-04  0.303E-04  0.293E-04  0.303E-04
   3.873  0.316E-04  0.327E-04  0.316E-04  0.327E-04
   3.883  0.341E-04  0.353E-04  0.341E-04  0.353E-04
   3.893  0.368E-04  0.382E-04  0.368E-04  0.382E-04
   3.903  0.398E-04  0.413E-04  0.398E-04  0.413E-04
   3.913  0.430E-04  0.446E-04  0.430E-04  0.446E-04
   3.923  0.464E-04  0.481E-04  0.464E-04  0.481E-04
   3.933  0.499E-04  0.519E-04  0.499E-04  0.519E-04
   3.943  0.534E-04  0.555E-04  0.534E-04  0.555E-04
   3.953  0.561E-04  0.583E-04  0.561E-04  0.583E-04
   3.963  0.582E-04  0.604E-04  0.582E-04  0.604E-04
   3.973  0.595E-04  0.617E-04  0.595E-04  0.617E-04
   3.983  0.600E-04  0.622E-04  0.600E-04  0.622E-04
   3.993  0.598E-04  0.620E-04  0.598E-04  0.620E-04
   4.003  0.589E-04  0.611E-04  0.589E-04  0.611E-04
   4.013  0.573E-04  0.594E-04  0.573E-04  0.594E-04
   4.023  0.549E-04  0.569E-04  0.549E-04  0.569E-04
   4.033  0.518E-04  0.537E-04  0.518E-04  0.537E-04
   4.043  0.491E-04  0.508E-04  0.491E-04  0.508E-04
   4.053  0.507E-04  0.524E-04  0.507E-04  0.524E-04
   4.063  0.523E-04  0.542E-04  0.523E-04  0.542E-04
   4.073  0.540E-04  0.559E-04  0.540E-04  0.559E-04
   4.083  0.558E-04  0.578E-04  0.558E-04  0.578E-04
   4.093  0.576E-04  0.597E-04  0.576E-04  0.597E-04
   4.103  0.595E-04  0.617E-04  0.595E-04  0.617E-04
   4.113  0.615E-04  0.638E-04  0.615E-04  0.638E-04
   4.123  0.635E-04  0.659E-04  0.635E-04  0.659E-04
   4.133  0.656E-04  0.681E-04  0.656E-04  0.681E-04
   4.143  0.677E-04  0.703E-04  0.677E-04  0.703E-04
   4.153  0.698E-04  0.725E-04  0.698E-04  0.725E-04
   4.163  0.720E-04  0.748E-04  0.720E-04  0.748E-04
   4.173  0.743E-04  0.772E-04  0.743E-04  0.772E-04
   4.183  0.766E-04  0.796E-04  0.766E-04  0.796E-04
   4.193  0.789E-04  0.821E-04  0.789E-04  0.821E-04
   4.203  0.814E-04  0.846E-04  0.814E-04  0.846E-04
   4.213  0.839E-04  0.872E-04  0.839E-04  0.872E-04
   4.223  0.864E-04  0.898E-04  0.864E-04  0.898E-04
   4.233  0.891E-04  0.925E-04  0.891E-04  0.925E-04
   4.243  0.918E-04  0.953E-04  0.918E-04  0.953E-04
   4.253  0.945E-04  0.981E-04  0.945E-04  0.981E-04
   4.263  0.973E-04  0.101E-03  0.973E-04  0.101E-03
   4.273  0.995E-04  0.103E-03  0.995E-04  0.103E-03
   4.283  0.102E-03  0.106E-03  0.102E-03  0.106E-03
   4.293  0.105E-03  0.109E-03  0.105E-03  0.109E-03
   4.303  0.108E-03  0.112E-03  0.108E-03  0.112E-03
   4.313  0.111E-03  0.115E-03  0.111E-03  0.115E-03
   4.323  0.114E-03  0.118E-03  0.114E-03  0.118E-03
   4.333  0.117E-03  0.121E-03  0.117E-03  0.121E-03
   4.343  0.121E-03  0.125E-03  0.121E-03  0.125E-03
   4.353  0.125E-03  0.130E-03  0.125E-03  0.130E-03
   4.363  0.130E-03  0.135E-03  0.130E-03  0.135E-03
   4.373  0.134E-03  0.140E-03  0.134E-03  0.140E-03
   4.383  0.139E-03  0.146E-03  0.139E-03  0.146E-03
   4.393  0.144E-03  0.153E-03  0.144E-03  0.153E-03
   4.403  0.150E-03  0.161E-03  0.150E-03  0.161E-03
   4.413  0.156E-03  0.169E-03  0.156E-03  0.169E-03
   4.423  0.162E-03  0.178E-03  0.162E-03  0.178E-03
   4.433  0.169E-03  0.189E-03  0.169E-03  0.189E-03
   4.443  0.178E-03  0.202E-03  0.178E-03  0.202E-03
   4.453  0.189E-03  0.217E-03  0.189E-03  0.217E-03
   4.463  0.202E-03  0.234E-03  0.202E-03  0.234E-03
   4.473  0.216E-03  0.254E-03  0.216E-03  0.254E-03
   4.483  0.233E-03  0.275E-03  0.233E-03  0.275E-03
   4.493  0.249E-03  0.294E-03  0.249E-03  0.294E-03
   4.503  0.267E-03  0.314E-03  0.267E-03  0.314E-03
   4.513  0.288E-03  0.337E-03  0.288E-03  0.337E-03
   4.523  0.311E-03  0.362E-03  0.311E-03  0.362E-03
   4.533  0.337E-03  0.391E-03  0.337E-03  0.391E-03
   4.543  0.366E-03  0.423E-03  0.366E-03  0.423E-03
   4.553  0.397E-03  0.458E-03  0.397E-03  0.458E-03
   4.563  0.431E-03  0.497E-03  0.431E-03  0.497E-03
   4.573  0.468E-03  0.538E-03  0.468E-03  0.538E-03
   4.583  0.507E-03  0.582E-03  0.507E-03  0.582E-03
   4.593  0.549E-03  0.629E-03  0.549E-03  0.629E-03
   4.603  0.594E-03  0.680E-03  0.594E-03  0.680E-03
   4.613  0.642E-03  0.733E-03  0.642E-03  0.733E-03
   4.623  0.692E-03  0.790E-03  0.692E-03  0.790E-03
   4.633  0.745E-03  0.850E-03  0.745E-03  0.850E-03
   4.643  0.800E-03  0.912E-03  0.800E-03  0.912E-03
   4.653  0.858E-03  0.978E-03  0.858E-03  0.978E-03
   4.663  0.915E-03  0.104E-02  0.915E-03  0.104E-02
   4.673  0.972E-03  0.111E-02  0.972E-03  0.111E-02
   4.683  0.103E-02  0.118E-02  0.103E-02  0.118E-02
   4.693  0.110E-02  0.126E-02  0.110E-02  0.126E-02
   4.703  0.117E-02  0.134E-02  0.117E-02  0.134E-02
   4.713  0.124E-02  0.143E-02  0.124E-02  0.143E-02
   4.723  0.132E-02  0.151E-02  0.132E-02  0.151E-02
   4.733  0.139E-02  0.160E-02  0.139E-02  0.160E-02
   4.743  0.147E-02  0.169E-02  0.147E-02  0.169E-02
   4.753  0.155E-02  0.179E-02  0.155E-02  0.179E-02
   4.763  0.164E-02  0.189E-02  0.164E-02  0.189E-02
   4.773  0.173E-02  0.199E-02  0.173E-02  0.199E-02
   4.783  0.182E-02  0.210E-02  0.182E-02  0.210E-02
   4.793  0.191E-02  0.220E-02  0.191E-02  0.220E-02
   4.803  0.200E-02  0.232E-02  0.200E-02  0.232E-02
   4.813  0.211E-02  0.243E-02  0.211E-02  0.243E-02
   4.823  0.222E-02  0.256E-02  0.222E-02  0.256E-02
   4.833  0.234E-02  0.269E-02  0.234E-02  0.269E-02
   4.843  0.246E-02  0.283E-02  0.246E-02  0.283E-02
   4.853  0.260E-02  0.298E-02  0.260E-02  0.298E-02
   4.863  0.274E-02  0.313E-02  0.274E-02  0.313E-02
   4.873  0.288E-02  0.330E-02  0.288E-02  0.330E-02
   4.883  0.304E-02  0.346E-02  0.304E-02  0.346E-02
   4.893  0.320E-02  0.364E-02  0.320E-02  0.364E-02
   4.903  0.337E-02  0.382E-02  0.337E-02  0.382E-02
   4.913  0.354E-02  0.401E-02  0.354E-02  0.401E-02
   4.923  0.374E-02  0.422E-02  0.374E-02  0.422E-02
   4.933  0.396E-02  0.445E-02  0.396E-02  0.445E-02
   4.943  0.420E-02  0.471E-02  0.420E-02  0.471E-02
   4.953  0.447E-02  0.499E-02  0.447E-02  0.499E-02
   4.963  0.477E-02  0.529E-02  0.477E-02  0.529E-02
   4.973  0.508E-02  0.562E-02  0.508E-02  0.562E-02
   4.983  0.542E-02  0.597E-02  0.542E-02  0.597E-02
   4.993  0.578E-02  0.634E-02  0.578E-02  0.634E-02
   5.003  0.616E-02  0.673E-02  0.616E-02  0.673E-02
   5.013  0.657E-02  0.715E-02  0.657E-02  0.715E-02
   5.023  0.700E-02  0.759E-02  0.700E-02  0.759E-02
   5.033  0.745E-02  0.805E-02  0.745E-02  0.805E-02
   5.043  0.792E-02  0.853E-02  0.792E-02  0.853E-02
   5.053  0.842E-02  0.903E-02  0.842E-02  0.903E-02
   5.063  0.894E-02  0.956E-02  0.894E-02  0.956E-02
   5.073  0.178E-01  0.184E-01  0.178E-01  0.184E-01
   5.083  0.376E-01  0.383E-01  0.376E-01  0.383E-01
   5.093  0.521E-01  0.528E-01  0.521E-01  0.528E-01
   5.103  0.592E-01  0.599E-01  0.592E-01  0.599E-01
   5.113  0.663E-01  0.670E-01  0.663E-01  0.670E-01
   5.123  0.733E-01  0.740E-01  0.733E-01  0.740E-01
   5.133  0.804E-01  0.810E-01  0.804E-01  0.810E-01
   5.143  0.873E-01  0.880E-01  0.873E-01  0.880E-01
   5.153  0.957E-01  0.964E-01  0.957E-01  0.964E-01
   5.163  0.104E+00  0.105E+00  0.104E+00  0.105E+00
   5.173  0.112E+00  0.113E+00  0.112E+00  0.113E+00
   5.183  0.119E+00  0.120E+00  0.119E+00  0.120E+00
   5.193  0.120E+00  0.121E+00  0.120E+00  0.121E+00
   5.203  0.119E+00  0.120E+00  0.119E+00  0.120E+00
   5.213  0.119E+00  0.119E+00  0.119E+00  0.119E+00
   5.223  0.118E+00  0.119E+00  0.118E+00  0.119E+00
   5.233  0.117E+00  0.118E+00  0.117E+00  0.118E+00
   5.243  0.116E+00  0.117E+00  0.116E+00  0.117E+00
   5.253  0.116E+00  0.116E+00  0.116E+00  0.116E+00
   5.263  0.101E+00  0.101E+00  0.101E+00  0.101E+00
   5.273  0.943E-01  0.947E-01  0.943E-01  0.947E-01
   5.283  0.877E-01  0.880E-01  0.877E-01  0.880E-01
   5.293  0.811E-01  0.813E-01  0.811E-01  0.813E-01
   5.303  0.755E-01  0.756E-01  0.755E-01  0.756E-01
   5.313  0.712E-01  0.711E-01  0.712E-01  0.711E-01
   5.323  0.669E-01  0.669E-01  0.669E-01  0.669E-01
   5.333  0.626E-01  0.628E-01  0.626E-01  0.628E-01
   5.343  0.583E-01  0.587E-01  0.583E-01  0.587E-01
   5.353  0.541E-01  0.547E-01  0.541E-01  0.547E-01
   5.363  0.499E-01  0.508E-01  0.499E-01  0.508E-01
   5.373  0.497E-01  0.509E-01  0.497E-01  0.509E-01
   5.383  0.502E-01  0.518E-01  0.502E-01  0.518E-01
   5.393  0.508E-01  0.527E-01  0.508E-01  0.527E-01
   5.403  0.514E-01  0.537E-01  0.514E-01  0.537E-01
   5.413  0.519E-01  0.547E-01  0.519E-01  0.547E-01
   5.423  0.525E-01  0.557E-01  0.525E-01  0.557E-01
   5.433  0.531E-01  0.568E-01  0.531E-01  0.568E-01
   5.443  0.537E-01  0.580E-01  0.537E-01  0.580E-01
   5.453  0.544E-01  0.592E-01  0.544E-01  0.592E-01
   5.463  0.545E-01  0.592E-01  0.545E-01  0.592E-01
   5.473  0.544E-01  0.589E-01  0.544E-01  0.589E-01
   5.483  0.541E-01  0.583E-01  0.541E-01  0.583E-01
   5.493  0.537E-01  0.573E-01  0.537E-01  0.573E-01
   5.503  0.531E-01  0.559E-01  0.531E-01  0.559E-01
   5.513  0.523E-01  0.542E-01  0.523E-01  0.542E-01
   5.523  0.513E-01  0.524E-01  0.513E-01  0.524E-01
   5.533  0.510E-01  0.521E-01  0.510E-01  0.521E-01
   5.543  0.508E-01  0.519E-01  0.508E-01  0.519E-01
   5.553  0.506E-01  0.517E-01  0.506E-01  0.517E-01
   5.563  0.503E-01  0.514E-01  0.503E-01  0.514E-01
   5.573  0.501E-01  0.512E-01  0.501E-01  0.512E-01
   5.583  0.499E-01  0.509E-01  0.499E-01  0.509E-01
   5.593  0.496E-01  0.506E-01  0.496E-01  0.506E-01
   5.603  0.493E-01  0.504E-01  0.493E-01  0.504E-01
   5.613  0.491E-01  0.501E-01  0.491E-01  0.501E-01
   5.623  0.488E-01  0.498E-01  0.488E-01  0.498E-01
   5.633  0.485E-01  0.495E-01  0.485E-01  0.495E-01
   5.643  0.483E-01  0.492E-01  0.483E-01  0.492E-01
   5.653  0.480E-01  0.489E-01  0.480E-01  0.489E-01
   5.663  0.477E-01  0.486E-01  0.477E-01  0.486E-01
   5.673  0.474E-01  0.483E-01  0.474E-01  0.483E-01
   5.683  0.471E-01  0.479E-01  0.471E-01  0.479E-01
   5.693  0.468E-01  0.476E-01  0.468E-01  0.476E-01
   5.703  0.465E-01  0.472E-01  0.465E-01  0.472E-01
   5.713  0.462E-01  0.469E-01  0.462E-01  0.469E-01
   5.723  0.459E-01  0.466E-01  0.459E-01  0.466E-01
   5.733  0.455E-01  0.462E-01  0.455E-01  0.462E-01
   5.743  0.452E-01  0.459E-01  0.452E-01  0.459E-01
   5.753  0.449E-01  0.455E-01  0.449E-01  0.455E-01
   5.763  0.446E-01  0.451E-01  0.446E-01  0.451E-01
   5.773  0.442E-01  0.448E-01  0.442E-01  0.448E-01
   5.783  0.439E-01  0.444E-01  0.439E-01  0.444E-01
   5.793  0.420E-01  0.425E-01  0.420E-01  0.425E-01
   5.803  0.396E-01  0.401E-01  0.396E-01  0.401E-01
   5.813  0.382E-01  0.386E-01  0.382E-01  0.386E-01
   5.823  0.370E-01  0.375E-01  0.370E-01  0.375E-01
   5.833  0.359E-01  0.363E-01  0.359E-01  0.363E-01
   5.843  0.348E-01  0.352E-01  0.348E-01  0.352E-01
   5.853  0.337E-01  0.341E-01  0.337E-01  0.341E-01
   5.863  0.331E-01  0.334E-01  0.331E-01  0.334E-01
   5.873  0.329E-01  0.332E-01  0.329E-01  0.332E-01
   5.883  0.327E-01  0.330E-01  0.327E-01  0.330E-01
   5.893  0.326E-01  0.328E-01  0.326E-01  0.328E-01
   5.903  0.324E-01  0.327E-01  0.324E-01  0.327E-01
   5.913  0.322E-01  0.325E-01  0.322E-01  0.325E-01
   5.923  0.321E-01  0.323E-01  0.321E-01  0.323E-01
   5.933  0.319E-01  0.321E-01  0.319E-01  0.321E-01
   5.943  0.317E-01  0.319E-01  0.317E-01  0.319E-01
   5.953  0.316E-01  0.317E-01  0.316E-01  0.317E-01
   5.963  0.314E-01  0.315E-01  0.314E-01  0.315E-01
   5.973  0.310E-01  0.311E-01  0.310E-01  0.311E-01
   5.983  0.304E-01  0.305E-01  0.304E-01  0.305E-01
   5.993  0.296E-01  0.297E-01  0.296E-01  0.297E-01
   6.003  0.286E-01  0.287E-01  0.286E-01  0.287E-01
   6.013  0.284E-01  0.285E-01  0.284E-01  0.285E-01
   6.023  0.283E-01  0.284E-01  0.283E-01  0.284E-01
   6.033  0.282E-01  0.282E-01  0.282E-01  0.282E-01
   6.043  0.281E-01  0.281E-01  0.281E-01  0.281E-01
   6.053  0.279E-01  0.280E-01  0.279E-01  0.280E-01
   6.063  0.278E-01  0.279E-01  0.278E-01  0.279E-01
   6.073  0.277E-01  0.277E-01  0.277E-01  0.277E-01
   6.083  0.276E-01  0.276E-01  0.276E-01  0.276E-01
   6.093  0.275E-01  0.275E-01  0.275E-01  0.275E-01
   6.103  0.274E-01  0.274E-01  0.274E-01  0.274E-01
   6.113  0.273E-01  0.273E-01  0.273E-01  0.273E-01
   6.123  0.272E-01  0.272E-01  0.272E-01  0.272E-01
   6.133  0.270E-01  0.271E-01  0.270E-01  0.271E-01
   6.143  0.269E-01  0.270E-01  0.269E-01  0.270E-01
   6.153  0.268E-01  0.269E-01  0.268E-01  0.269E-01
   6.163  0.267E-01  0.267E-01  0.267E-01  0.267E-01
   6.173  0.266E-01  0.266E-01  0.266E-01  0.266E-01
   6.183  0.265E-01  0.265E-01  0.265E-01  0.265E-01
   6.193  0.264E-01  0.265E-01  0.264E-01  0.265E-01
   6.203  0.263E-01  0.264E-01  0.263E-01  0.264E-01
   6.213  0.263E-01  0.263E-01  0.263E-01  0.263E-01
   6.223  0.262E-01  0.262E-01  0.262E-01  0.262E-01
   6.233  0.261E-01  0.261E-01  0.261E-01  0.261E-01
   6.243  0.260E-01  0.260E-01  0.260E-01  0.260E-01
   6.253  0.259E-01  0.259E-01  0.259E-01  0.259E-01
   6.263  0.258E-01  0.258E-01  0.258E-01  0.258E-01
   6.273  0.257E-01  0.257E-01  0.257E-01  0.257E-01
   6.283  0.256E-01  0.256E-01  0.256E-01  0.256E-01
   6.293  0.255E-01  0.255E-01  0.255E-01  0.255E-01
   6.303  0.254E-01  0.254E-01  0.254E-01  0.254E-01
   6.313  0.253E-01  0.253E-01  0.253E-01  0.253E-01
   6.323  0.253E-01  0.253E-01  0.253E-01  0.253E-01
   6.333  0.252E-01  0.252E-01  0.252E-01  0.252E-01
   6.343  0.251E-01  0.251E-01  0.251E-01  0.251E-01
   6.353  0.250E-01  0.250E-01  0.250E-01  0.250E-01
   6.363  0.249E-01  0.249E-01  0.249E-01  0.249E-01
   6.373  0.248E-01  0.248E-01  0.248E-01  0.248E-01
   6.383  0.248E-01  0.247E-01  0.248E-01  0.247E-01
   6.393  0.247E-01  0.247E-01  0.247E-01  0.247E-01
   6.403  0.246E-01  0.246E-01  0.246E-01  0.246E-01
   6.413  0.245E-01  0.245E-01  0.245E-01  0.245E-01
   6.423  0.244E-01  0.244E-01  0.244E-01  0.244E-01
   6.433  0.243E-01  0.243E-01  0.243E-01  0.243E-01
   6.443  0.243E-01  0.243E-01  0.243E-01  0.243E-01
   6.453  0.242E-01  0.242E-01  0.242E-01  0.242E-01
   6.463  0.241E-01  0.241E-01  0.241E-01  0.241E-01
   6.473  0.240E-01  0.240E-01  0.240E-01  0.240E-01
   6.483  0.239E-01  0.239E-01  0.239E-01  0.239E-01
   6.493  0.239E-01  0.239E-01  0.239E-01  0.239E-01
   6.503  0.238E-01  0.238E-01  0.238E-01  0.238E-01
   6.513  0.237E-01  0.237E-01  0.237E-01  0.237E-01
   6.523  0.236E-01  0.236E-01  0.236E-01  0.236E-01
   6.533  0.235E-01  0.235E-01  0.235E-01  0.235E-01
   6.543  0.235E-01  0.235E-01  0.235E-01  0.235E-01
   6.553  0.234E-01  0.234E-01  0.234E-01  0.234E-01
   6.563  0.233E-01  0.233E-01  0.233E-01  0.233E-01
   6.573  0.232E-01  0.232E-01  0.232E-01  0.232E-01
   6.583  0.232E-01  0.232E-01  0.232E-01  0.232E-01
   6.593  0.231E-01  0.231E-01  0.231E-01  0.231E-01
   6.603  0.230E-01  0.230E-01  0.230E-01  0.230E-01
   6.613  0.218E-01  0.218E-01  0.218E-01  0.218E-01
   6.623  0.213E-01  0.213E-01  0.213E-01  0.213E-01
   6.633  0.209E-01  0.209E-01  0.209E-01  0.209E-01
   6.643  0.206E-01  0.206E-01  0.206E-01  0.206E-01
   6.653  0.205E-01  0.205E-01  0.205E-01  0.205E-01
   6.663  0.204E-01  0.204E-01  0.204E-01  0.204E-01
   6.673  0.204E-01  0.204E-01  0.204E-01  0.204E-01
   6.683  0.203E-01  0.203E-01  0.203E-01  0.203E-01
   6.693  0.202E-01  0.202E-01  0.202E-01  0.202E-01
   6.703  0.202E-01  0.202E-01  0.202E-01  0.202E-01
   6.713  0.201E-01  0.201E-01  0.201E-01  0.201E-01
   6.723  0.200E-01  0.200E-01  0.200E-01  0.200E-01
   6.733  0.200E-01  0.200E-01  0.200E-01  0.200E-01
   6.743  0.199E-01  0.199E-01  0.199E-01  0.199E-01
   6.753  0.190E-01  0.191E-01  0.190E-01  0.191E-01
   6.763  0.189E-01  0.189E-01  0.189E-01  0.189E-01
   6.773  0.188E-01  0.188E-01  0.188E-01  0.188E-01
   6.783  0.188E-01  0.187E-01  0.188E-01  0.187E-01
   6.793  0.187E-01  0.187E-01  0.187E-01  0.187E-01
   6.803  0.186E-01  0.186E-01  0.186E-01  0.186E-01
   6.813  0.185E-01  0.185E-01  0.185E-01  0.185E-01
   6.823  0.184E-01  0.184E-01  0.184E-01  0.184E-01
   6.833  0.183E-01  0.183E-01  0.183E-01  0.183E-01
   6.843  0.183E-01  0.182E-01  0.183E-01  0.182E-01
   6.853  0.182E-01  0.182E-01  0.182E-01  0.182E-01
   6.863  0.181E-01  0.181E-01  0.181E-01  0.181E-01
   6.873  0.180E-01  0.180E-01  0.180E-01  0.180E-01
   6.883  0.179E-01  0.179E-01  0.179E-01  0.179E-01
   6.893  0.179E-01  0.179E-01  0.179E-01  0.179E-01
   6.903  0.178E-01  0.178E-01  0.178E-01  0.178E-01
   6.913  0.177E-01  0.177E-01  0.177E-01  0.177E-01
   6.923  0.177E-01  0.176E-01  0.177E-01  0.176E-01
   6.933  0.176E-01  0.176E-01  0.176E-01  0.176E-01
   6.943  0.175E-01  0.175E-01  0.175E-01  0.175E-01
   6.953  0.175E-01  0.174E-01  0.175E-01  0.174E-01
   6.963  0.174E-01  0.174E-01  0.174E-01  0.174E-01
   6.973  0.173E-01  0.173E-01  0.173E-01  0.173E-01
   6.983  0.173E-01  0.172E-01  0.173E-01  0.172E-01
   6.993  0.172E-01  0.172E-01  0.172E-01  0.172E-01
   7.003  0.171E-01  0.171E-01  0.171E-01  0.171E-01
   7.013  0.171E-01  0.171E-01  0.171E-01  0.171E-01
   7.023  0.170E-01  0.170E-01  0.170E-01  0.170E-01
   7.033  0.170E-01  0.170E-01  0.170E-01  0.170E-01
   7.043  0.169E-01  0.169E-01  0.169E-01  0.169E-01
   7.053  0.168E-01  0.168E-01  0.168E-01  0.168E-01
   7.063  0.168E-01  0.168E-01  0.168E-01  0.168E-01
   7.073  0.167E-01  0.167E-01  0.167E-01  0.167E-01
   7.083  0.167E-01  0.167E-01  0.167E-01  0.167E-01
   7.093  0.166E-01  0.166E-01  0.166E-01  0.166E-01
   7.103  0.166E-01  0.166E-01  0.166E-01  0.166E-01
   7.113  0.165E-01  0.165E-01  0.165E-01  0.165E-01
   7.123  0.165E-01  0.165E-01  0.165E-01  0.165E-01
   7.133  0.164E-01  0.164E-01  0.164E-01  0.164E-01
   7.143  0.164E-01  0.164E-01  0.164E-01  0.164E-01
   7.153  0.164E-01  0.163E-01  0.164E-01  0.163E-01
   7.163  0.163E-01  0.163E-01  0.163E-01  0.163E-01
   7.173  0.163E-01  0.163E-01  0.163E-01  0.163E-01
   7.183  0.162E-01  0.162E-01  0.162E-01  0.162E-01
   7.193  0.162E-01  0.162E-01  0.162E-01  0.162E-01
   7.203  0.161E-01  0.161E-01  0.161E-01  0.161E-01
   7.213  0.161E-01  0.161E-01  0.161E-01  0.161E-01
   7.223  0.161E-01  0.161E-01  0.161E-01  0.161E-01
   7.233  0.160E-01  0.160E-01  0.160E-01  0.160E-01
   7.243  0.160E-01  0.160E-01  0.160E-01  0.160E-01
   7.253  0.159E-01  0.159E-01  0.159E-01  0.159E-01
   7.263  0.159E-01  0.159E-01  0.159E-01  0.159E-01
   7.273  0.159E-01  0.159E-01  0.159E-01  0.159E-01
   7.283  0.158E-01  0.158E-01  0.158E-01  0.158E-01
   7.293  0.158E-01  0.158E-01  0.158E-01  0.158E-01
   7.303  0.158E-01  0.158E-01  0.158E-01  0.158E-01
   7.313  0.157E-01  0.157E-01  0.157E-01  0.157E-01
   7.323  0.157E-01  0.157E-01  0.157E-01  0.157E-01
   7.333  0.157E-01  0.157E-01  0.157E-01  0.157E-01
   7.343  0.156E-01  0.156E-01  0.156E-01  0.156E-01
   7.353  0.156E-01  0.156E-01  0.156E-01  0.156E-01
   7.363  0.156E-01  0.156E-01  0.156E-01  0.156E-01
   7.373  0.156E-01  0.155E-01  0.156E-01  0.155E-01
   7.383  0.155E-01  0.155E-01  0.155E-01  0.155E-01
   7.393  0.155E-01  0.155E-01  0.155E-01  0.155E-01
   7.403  0.155E-01  0.155E-01  0.155E-01  0.155E-01
   7.413  0.155E-01  0.154E-01  0.155E-01  0.154E-01
   7.423  0.154E-01  0.154E-01  0.154E-01  0.154E-01
   7.433  0.154E-01  0.154E-01  0.154E-01  0.154E-01
   7.443  0.154E-01  0.154E-01  0.154E-01  0.154E-01
   7.453  0.154E-01  0.154E-01  0.154E-01  0.154E-01
   7.463  0.153E-01  0.153E-01  0.153E-01  0.153E-01
   7.473  0.153E-01  0.153E-01  0.153E-01  0.153E-01
   7.483  0.153E-01  0.153E-01  0.153E-01  0.153E-01
   7.493  0.153E-01  0.153E-01  0.153E-01  0.153E-01
   7.503  0.153E-01  0.153E-01  0.153E-01  0.153E-01
   7.513  0.153E-01  0.153E-01  0.153E-01  0.153E-01
   7.523  0.153E-01  0.152E-01  0.153E-01  0.152E-01
   7.533  0.152E-01  0.152E-01  0.152E-01  0.152E-01
   7.543  0.152E-01  0.152E-01  0.152E-01  0.152E-01
   7.553  0.152E-01  0.152E-01  0.152E-01  0.152E-01
   7.563  0.152E-01  0.152E-01  0.152E-01  0.152E-01
   7.573  0.152E-01  0.152E-01  0.152E-01  0.152E-01
   7.583  0.152E-01  0.152E-01  0.152E-01  0.152E-01
   7.593  0.152E-01  0.152E-01  0.152E-01  0.152E-01
   7.603  0.152E-01  0.152E-01  0.152E-01  0.152E-01
   7.613  0.151E-01  0.151E-01  0.151E-01  0.151E-01
   7.623  0.148E-01  0.148E-01  0.148E-01  0.148E-01
   7.633  0.147E-01  0.146E-01  0.147E-01  0.146E-01
   7.643  0.146E-01  0.146E-01  0.146E-01  0.146E-01
   7.653  0.146E-01  0.146E-01  0.146E-01  0.146E-01
   7.663  0.145E-01  0.145E-01  0.145E-01  0.145E-01
   7.673  0.145E-01  0.145E-01  0.145E-01  0.145E-01
   7.683  0.144E-01  0.144E-01  0.144E-01  0.144E-01
   7.693  0.144E-01  0.144E-01  0.144E-01  0.144E-01
   7.703  0.144E-01  0.143E-01  0.144E-01  0.143E-01
   7.713  0.143E-01  0.143E-01  0.143E-01  0.143E-01
   7.723  0.142E-01  0.142E-01  0.142E-01  0.142E-01
   7.733  0.141E-01  0.141E-01  0.141E-01  0.141E-01
   7.743  0.140E-01  0.140E-01  0.140E-01  0.140E-01
   7.753  0.139E-01  0.139E-01  0.139E-01  0.139E-01
   7.763  0.138E-01  0.138E-01  0.138E-01  0.138E-01
   7.773  0.137E-01  0.136E-01  0.137E-01  0.136E-01
   7.783  0.135E-01  0.135E-01  0.135E-01  0.135E-01
   7.793  0.134E-01  0.134E-01  0.134E-01  0.134E-01
   7.803  0.133E-01  0.133E-01  0.133E-01  0.133E-01
   7.813  0.132E-01  0.132E-01  0.132E-01  0.132E-01
   7.823  0.131E-01  0.131E-01  0.131E-01  0.131E-01
   7.833  0.131E-01  0.130E-01  0.131E-01  0.130E-01
   7.843  0.130E-01  0.130E-01  0.130E-01  0.130E-01
   7.853  0.129E-01  0.129E-01  0.129E-01  0.129E-01
   7.863  0.128E-01  0.128E-01  0.128E-01  0.128E-01
   7.873  0.127E-01  0.127E-01  0.127E-01  0.127E-01
   7.883  0.127E-01  0.127E-01  0.127E-01  0.127E-01
   7.893  0.126E-01  0.126E-01  0.126E-01  0.126E-01
   7.903  0.125E-01  0.125E-01  0.125E-01  0.125E-01
   7.913  0.125E-01  0.124E-01  0.125E-01  0.124E-01
   7.923  0.124E-01  0.124E-01  0.124E-01  0.124E-01
   7.933  0.123E-01  0.123E-01  0.123E-01  0.123E-01
   7.943  0.122E-01  0.122E-01  0.122E-01  0.122E-01
   7.953  0.122E-01  0.122E-01  0.122E-01  0.122E-01
   7.963  0.121E-01  0.121E-01  0.121E-01  0.121E-01
   7.973  0.120E-01  0.120E-01  0.120E-01  0.120E-01
   7.983  0.120E-01  0.119E-01  0.120E-01  0.119E-01
   7.993  0.119E-01  0.119E-01  0.119E-01  0.119E-01
   8.003  0.118E-01  0.118E-01  0.118E-01  0.118E-01
   8.013  0.117E-01  0.117E-01  0.117E-01  0.117E-01
   8.023  0.116E-01  0.116E-01  0.116E-01  0.116E-01
   8.033  0.116E-01  0.115E-01  0.116E-01  0.115E-01
   8.043  0.115E-01  0.115E-01  0.115E-01  0.115E-01
   8.053  0.114E-01  0.114E-01  0.114E-01  0.114E-01
   8.063  0.113E-01  0.113E-01  0.113E-01  0.113E-01
   8.073  0.112E-01  0.112E-01  0.112E-01  0.112E-01
   8.083  0.111E-01  0.111E-01  0.111E-01  0.111E-01
   8.093  0.111E-01  0.110E-01  0.111E-01  0.110E-01
   8.103  0.110E-01  0.110E-01  0.110E-01  0.110E-01
   8.113  0.109E-01  0.109E-01  0.109E-01  0.109E-01
   8.123  0.108E-01  0.108E-01  0.108E-01  0.108E-01
   8.133  0.107E-01  0.107E-01  0.107E-01  0.107E-01
   8.143  0.106E-01  0.106E-01  0.106E-01  0.106E-01
   8.153  0.105E-01  0.105E-01  0.105E-01  0.105E-01
   8.163  0.104E-01  0.104E-01  0.104E-01  0.104E-01
   8.173  0.104E-01  0.103E-01  0.104E-01  0.103E-01
   8.183  0.103E-01  0.102E-01  0.103E-01  0.102E-01
   8.193  0.102E-01  0.102E-01  0.102E-01  0.102E-01
   8.203  0.101E-01  0.101E-01  0.101E-01  0.101E-01
   8.213  0.999E-02  0.997E-02  0.999E-02  0.997E-02
   8.223  0.990E-02  0.988E-02  0.990E-02  0.988E-02
   8.233  0.987E-02  0.985E-02  0.987E-02  0.985E-02
   8.243  0.980E-02  0.977E-02  0.980E-02  0.977E-02
   8.253  0.973E-02  0.970E-02  0.973E-02  0.970E-02
   8.263  0.966E-02  0.964E-02  0.966E-02  0.964E-02
   8.273  0.961E-02  0.959E-02  0.961E-02  0.959E-02
   8.283  0.957E-02  0.954E-02  0.957E-02  0.954E-02
   8.293  0.953E-02  0.951E-02  0.953E-02  0.951E-02
   8.303  0.950E-02  0.948E-02  0.950E-02  0.948E-02
   8.313  0.948E-02  0.946E-02  0.948E-02  0.946E-02
   8.323  0.946E-02  0.944E-02  0.946E-02  0.944E-02
   8.333  0.946E-02  0.944E-02  0.946E-02  0.944E-02
   8.343  0.946E-02  0.944E-02  0.946E-02  0.944E-02
   8.353  0.947E-02  0.945E-02  0.947E-02  0.945E-02
   8.363  0.949E-02  0.947E-02  0.949E-02  0.947E-02
   8.373  0.952E-02  0.950E-02  0.952E-02  0.950E-02
   8.383  0.955E-02  0.953E-02  0.955E-02  0.953E-02
   8.393  0.960E-02  0.957E-02  0.960E-02  0.957E-02
   8.403  0.965E-02  0.963E-02  0.965E-02  0.963E-02
   8.413  0.971E-02  0.968E-02  0.971E-02  0.968E-02
   8.423  0.976E-02  0.974E-02  0.976E-02  0.974E-02
   8.433  0.982E-02  0.980E-02  0.982E-02  0.980E-02
   8.443  0.989E-02  0.986E-02  0.989E-02  0.986E-02
   8.453  0.995E-02  0.992E-02  0.995E-02  0.992E-02
   8.463  0.100E-01  0.999E-02  0.100E-01  0.999E-02
   8.473  0.101E-01  0.101E-01  0.101E-01  0.101E-01
   8.483  0.101E-01  0.101E-01  0.101E-01  0.101E-01
   8.493  0.102E-01  0.102E-01  0.102E-01  0.102E-01
   8.503  0.103E-01  0.102E-01  0.103E-01  0.102E-01
   8.513  0.103E-01  0.103E-01  0.103E-01  0.103E-01
   8.523  0.104E-01  0.104E-01  0.104E-01  0.104E-01
   8.533  0.105E-01  0.105E-01  0.105E-01  0.105E-01
   8.543  0.108E-01  0.107E-01  0.108E-01  0.107E-01
   8.553  0.112E-01  0.112E-01  0.112E-01  0.112E-01
   8.563  0.120E-01  0.119E-01  0.120E-01  0.119E-01
   8.573  0.130E-01  0.130E-01  0.130E-01  0.130E-01
   8.583  0.144E-01  0.143E-01  0.144E-01  0.143E-01
   8.593  0.157E-01  0.157E-01  0.157E-01  0.157E-01
   8.603  0.169E-01  0.169E-01  0.169E-01  0.169E-01
   8.613  0.181E-01  0.180E-01  0.181E-01  0.180E-01
   8.623  0.191E-01  0.191E-01  0.191E-01  0.191E-01
   8.633  0.201E-01  0.201E-01  0.201E-01  0.201E-01
   8.643  0.210E-01  0.210E-01  0.210E-01  0.210E-01
   8.653  0.218E-01  0.218E-01  0.218E-01  0.218E-01
   8.663  0.226E-01  0.225E-01  0.226E-01  0.225E-01
   8.673  0.232E-01  0.232E-01  0.232E-01  0.232E-01
   8.683  0.238E-01  0.237E-01  0.238E-01  0.237E-01
   8.693  0.242E-01  0.242E-01  0.242E-01  0.242E-01
   8.703  0.246E-01  0.246E-01  0.246E-01  0.246E-01
   8.713  0.249E-01  0.249E-01  0.249E-01  0.249E-01
   8.723  0.252E-01  0.251E-01  0.252E-01  0.251E-01
   8.733  0.518E-02  0.515E-02  0.518E-02  0.515E-02
   8.743  0.524E-02  0.521E-02  0.524E-02  0.521E-02
   8.753  0.544E-02  0.542E-02  0.544E-02  0.542E-02
   8.763  0.585E-02  0.582E-02  0.585E-02  0.582E-02
   8.773  0.645E-02  0.643E-02  0.645E-02  0.643E-02
   8.783  0.725E-02  0.722E-02  0.725E-02  0.722E-02
   8.793  0.825E-02  0.822E-02  0.825E-02  0.822E-02
   8.803  0.893E-02  0.887E-02  0.893E-02  0.887E-02
   8.813  0.873E-02  0.867E-02  0.873E-02  0.867E-02
   8.823  0.854E-02  0.848E-02  0.854E-02  0.848E-02
   8.833  0.835E-02  0.830E-02  0.835E-02  0.830E-02
   8.843  0.817E-02  0.812E-02  0.817E-02  0.812E-02
   8.853  0.800E-02  0.795E-02  0.800E-02  0.795E-02
   8.863  0.783E-02  0.778E-02  0.783E-02  0.778E-02
   8.873  0.768E-02  0.763E-02  0.768E-02  0.763E-02
   8.883  0.756E-02  0.751E-02  0.756E-02  0.751E-02
   8.893  0.744E-02  0.739E-02  0.744E-02  0.739E-02
   8.903  0.733E-02  0.729E-02  0.733E-02  0.729E-02
   8.913  0.723E-02  0.719E-02  0.723E-02  0.719E-02
   8.923  0.713E-02  0.709E-02  0.713E-02  0.709E-02
   8.933  0.704E-02  0.700E-02  0.704E-02  0.700E-02
   8.943  0.696E-02  0.692E-02  0.696E-02  0.692E-02
   8.953  0.688E-02  0.684E-02  0.688E-02  0.684E-02
   8.963  0.683E-02  0.679E-02  0.683E-02  0.679E-02
   8.973  0.680E-02  0.677E-02  0.680E-02  0.677E-02
   8.983  0.679E-02  0.676E-02  0.679E-02  0.676E-02
   8.993  0.677E-02  0.675E-02  0.677E-02  0.675E-02
   9.003  0.676E-02  0.674E-02  0.676E-02  0.674E-02
   9.013  0.676E-02  0.673E-02  0.676E-02  0.673E-02
   9.023  0.677E-02  0.674E-02  0.677E-02  0.674E-02
   9.033  0.677E-02  0.675E-02  0.677E-02  0.675E-02
   9.043  0.678E-02  0.676E-02  0.678E-02  0.676E-02
   9.053  0.679E-02  0.677E-02  0.679E-02  0.677E-02
   9.063  0.680E-02  0.678E-02  0.680E-02  0.678E-02
   9.073  0.683E-02  0.681E-02  0.683E-02  0.681E-02
   9.083  0.685E-02  0.684E-02  0.685E-02  0.684E-02
   9.093  0.689E-02  0.687E-02  0.689E-02  0.687E-02
   9.103  0.692E-02  0.691E-02  0.692E-02  0.691E-02
   9.113  0.696E-02  0.695E-02  0.696E-02  0.695E-02
   9.123  0.701E-02  0.699E-02  0.701E-02  0.699E-02
   9.133  0.706E-02  0.704E-02  0.706E-02  0.704E-02
   9.143  0.711E-02  0.710E-02  0.711E-02  0.710E-02
   9.153  0.809E-02  0.808E-02  0.809E-02  0.808E-02
   9.163  0.807E-02  0.806E-02  0.807E-02  0.806E-02
   9.173  0.809E-02  0.808E-02  0.809E-02  0.808E-02
   9.183  0.812E-02  0.810E-02  0.812E-02  0.810E-02
   9.193  0.813E-02  0.812E-02  0.813E-02  0.812E-02
   9.203  0.813E-02  0.812E-02  0.813E-02  0.812E-02
   9.213  0.813E-02  0.811E-02  0.813E-02  0.811E-02
   9.223  0.811E-02  0.810E-02  0.811E-02  0.810E-02
   9.233  0.809E-02  0.808E-02  0.809E-02  0.808E-02
   9.243  0.806E-02  0.805E-02  0.806E-02  0.805E-02
   9.253  0.802E-02  0.801E-02  0.802E-02  0.801E-02
   9.263  0.797E-02  0.796E-02  0.797E-02  0.796E-02
   9.273  0.791E-02  0.790E-02  0.791E-02  0.790E-02
   9.283  0.784E-02  0.783E-02  0.784E-02  0.783E-02
   9.293  0.777E-02  0.776E-02  0.777E-02  0.776E-02
   9.303  0.768E-02  0.768E-02  0.768E-02  0.768E-02
   9.313  0.759E-02  0.759E-02  0.759E-02  0.759E-02
   9.323  0.752E-02  0.752E-02  0.752E-02  0.752E-02
   9.333  0.755E-02  0.755E-02  0.755E-02  0.755E-02
   9.343  0.758E-02  0.758E-02  0.758E-02  0.758E-02
   9.353  0.761E-02  0.761E-02  0.761E-02  0.761E-02
   9.363  0.764E-02  0.764E-02  0.764E-02  0.764E-02
   9.373  0.767E-02  0.767E-02  0.767E-02  0.767E-02
   9.383  0.770E-02  0.770E-02  0.770E-02  0.770E-02
   9.393  0.773E-02  0.773E-02  0.773E-02  0.773E-02
   9.403  0.775E-02  0.775E-02  0.775E-02  0.775E-02
   9.413  0.778E-02  0.778E-02  0.778E-02  0.778E-02
   9.423  0.780E-02  0.781E-02  0.780E-02  0.781E-02
   9.433  0.783E-02  0.783E-02  0.783E-02  0.783E-02
   9.443  0.785E-02  0.785E-02  0.785E-02  0.785E-02
   9.453  0.787E-02  0.787E-02  0.787E-02  0.787E-02
   9.463  0.789E-02  0.789E-02  0.789E-02  0.789E-02
   9.473  0.791E-02  0.791E-02  0.791E-02  0.791E-02
   9.483  0.793E-02  0.793E-02  0.793E-02  0.793E-02
   9.493  0.795E-02  0.795E-02  0.795E-02  0.795E-02
   9.503  0.797E-02  0.797E-02  0.797E-02  0.797E-02
   9.513  0.798E-02  0.798E-02  0.798E-02  0.798E-02
   9.523  0.800E-02  0.800E-02  0.800E-02  0.800E-02
   9.533  0.801E-02  0.801E-02  0.801E-02  0.801E-02
   9.543  0.803E-02  0.803E-02  0.803E-02  0.803E-02
   9.553  0.804E-02  0.804E-02  0.804E-02  0.804E-02
   9.563  0.805E-02  0.805E-02  0.805E-02  0.805E-02
   9.573  0.806E-02  0.806E-02  0.806E-02  0.806E-02
   9.583  0.807E-02  0.807E-02  0.807E-02  0.807E-02
   9.593  0.808E-02  0.808E-02  0.808E-02  0.808E-02
   9.603  0.809E-02  0.809E-02  0.809E-02  0.809E-02
   9.613  0.809E-02  0.809E-02  0.809E-02  0.809E-02
   9.623  0.810E-02  0.810E-02  0.810E-02  0.810E-02
   9.633  0.810E-02  0.810E-02  0.810E-02  0.810E-02
   9.643  0.811E-02  0.811E-02  0.811E-02  0.811E-02
   9.653  0.811E-02  0.811E-02  0.811E-02  0.811E-02
   9.663  0.811E-02  0.811E-02  0.811E-02  0.811E-02
   9.673  0.811E-02  0.811E-02  0.811E-02  0.811E-02
   9.683  0.811E-02  0.811E-02  0.811E-02  0.811E-02
   9.693  0.811E-02  0.811E-02  0.811E-02  0.811E-02
   9.703  0.811E-02  0.811E-02  0.811E-02  0.811E-02
   9.713  0.811E-02  0.810E-02  0.811E-02  0.810E-02
   9.723  0.810E-02  0.810E-02  0.810E-02  0.810E-02
   9.733  0.810E-02  0.810E-02  0.810E-02  0.810E-02
   9.743  0.809E-02  0.809E-02  0.809E-02  0.809E-02
   9.753  0.809E-02  0.808E-02  0.809E-02  0.808E-02
   9.763  0.808E-02  0.808E-02  0.808E-02  0.808E-02
   9.773  0.807E-02  0.807E-02  0.807E-02  0.807E-02
   9.783  0.814E-02  0.818E-02  0.814E-02  0.818E-02
   9.793  0.884E-02  0.888E-02  0.884E-02  0.888E-02
   9.803  0.945E-02  0.948E-02  0.945E-02  0.948E-02
   9.813  0.994E-02  0.997E-02  0.994E-02  0.997E-02
   9.823  0.103E-01  0.104E-01  0.103E-01  0.104E-01
   9.833  0.106E-01  0.106E-01  0.106E-01  0.106E-01
   9.843  0.108E-01  0.108E-01  0.108E-01  0.108E-01
   9.853  0.109E-01  0.109E-01  0.109E-01  0.109E-01
   9.863  0.109E-01  0.108E-01  0.109E-01  0.108E-01
   9.873  0.107E-01  0.107E-01  0.107E-01  0.107E-01
   9.883  0.107E-01  0.106E-01  0.107E-01  0.106E-01
   9.893  0.105E-01  0.105E-01  0.105E-01  0.105E-01
   9.903  0.102E-01  0.102E-01  0.102E-01  0.102E-01
   9.913  0.981E-02  0.978E-02  0.981E-02  0.978E-02
   9.923  0.927E-02  0.923E-02  0.927E-02  0.923E-02
   9.933  0.741E-02  0.737E-02  0.741E-02  0.737E-02
   9.943  0.751E-02  0.747E-02  0.751E-02  0.747E-02
   9.953  0.757E-02  0.753E-02  0.757E-02  0.753E-02
   9.963  0.762E-02  0.758E-02  0.762E-02  0.758E-02
   9.973  0.766E-02  0.761E-02  0.766E-02  0.761E-02
   9.983  0.768E-02  0.764E-02  0.768E-02  0.764E-02
   9.993  0.770E-02  0.766E-02  0.770E-02  0.766E-02
  10.003  0.772E-02  0.767E-02  0.772E-02  0.767E-02
  10.013  0.772E-02  0.767E-02  0.772E-02  0.767E-02
  10.023  0.772E-02  0.767E-02  0.772E-02  0.767E-02
  10.033  0.771E-02  0.765E-02  0.771E-02  0.765E-02
  10.043  0.769E-02  0.763E-02  0.769E-02  0.763E-02
  10.053  0.766E-02  0.760E-02  0.766E-02  0.760E-02
  10.063  0.762E-02  0.757E-02  0.762E-02  0.757E-02
  10.073  0.758E-02  0.752E-02  0.758E-02  0.752E-02
  10.083  0.753E-02  0.747E-02  0.753E-02  0.747E-02
  10.093  0.748E-02  0.742E-02  0.748E-02  0.742E-02
  10.103  0.743E-02  0.737E-02  0.743E-02  0.737E-02
  10.113  0.738E-02  0.732E-02  0.738E-02  0.732E-02
  10.123  0.733E-02  0.727E-02  0.733E-02  0.727E-02
  10.133  0.729E-02  0.722E-02  0.729E-02  0.722E-02
  10.143  0.724E-02  0.718E-02  0.724E-02  0.718E-02
  10.153  0.719E-02  0.713E-02  0.719E-02  0.713E-02
  10.163  0.715E-02  0.709E-02  0.715E-02  0.709E-02
  10.173  0.710E-02  0.704E-02  0.710E-02  0.704E-02
  10.183  0.706E-02  0.700E-02  0.706E-02  0.700E-02
  10.193  0.702E-02  0.695E-02  0.702E-02  0.695E-02
  10.203  0.697E-02  0.691E-02  0.697E-02  0.691E-02
  10.213  0.693E-02  0.687E-02  0.693E-02  0.687E-02
  10.223  0.689E-02  0.683E-02  0.689E-02  0.683E-02
  10.233  0.685E-02  0.679E-02  0.685E-02  0.679E-02
  10.243  0.681E-02  0.675E-02  0.681E-02  0.675E-02
  10.253  0.677E-02  0.671E-02  0.677E-02  0.671E-02
  10.263  0.674E-02  0.667E-02  0.674E-02  0.667E-02
  10.273  0.670E-02  0.663E-02  0.670E-02  0.663E-02
  10.283  0.666E-02  0.660E-02  0.666E-02  0.660E-02
  10.293  0.663E-02  0.656E-02  0.663E-02  0.656E-02
  10.303  0.659E-02  0.653E-02  0.659E-02  0.653E-02
  10.313  0.656E-02  0.649E-02  0.656E-02  0.649E-02
  10.323  0.653E-02  0.646E-02  0.653E-02  0.646E-02
  10.333  0.649E-02  0.643E-02  0.649E-02  0.643E-02
  10.343  0.646E-02  0.640E-02  0.646E-02  0.640E-02
  10.353  0.643E-02  0.637E-02  0.643E-02  0.637E-02
  10.363  0.640E-02  0.633E-02  0.640E-02  0.633E-02
  10.373  0.637E-02  0.631E-02  0.637E-02  0.631E-02
  10.383  0.634E-02  0.628E-02  0.634E-02  0.628E-02
  10.393  0.631E-02  0.625E-02  0.631E-02  0.625E-02
  10.403  0.629E-02  0.622E-02  0.629E-02  0.622E-02
  10.413  0.626E-02  0.620E-02  0.626E-02  0.620E-02
  10.423  0.623E-02  0.617E-02  0.623E-02  0.617E-02
  10.433  0.621E-02  0.615E-02  0.621E-02  0.615E-02
  10.443  0.618E-02  0.612E-02  0.618E-02  0.612E-02
  10.453  0.616E-02  0.610E-02  0.616E-02  0.610E-02
  10.463  0.614E-02  0.608E-02  0.614E-02  0.608E-02
  10.473  0.612E-02  0.605E-02  0.612E-02  0.605E-02
  10.483  0.609E-02  0.603E-02  0.609E-02  0.603E-02
  10.493  0.607E-02  0.601E-02  0.607E-02  0.601E-02
  10.503  0.605E-02  0.599E-02  0.605E-02  0.599E-02
  10.513  0.603E-02  0.597E-02  0.603E-02  0.597E-02
  10.523  0.602E-02  0.596E-02  0.602E-02  0.596E-02
  10.533  0.600E-02  0.594E-02  0.600E-02  0.594E-02
  10.543  0.598E-02  0.592E-02  0.598E-02  0.592E-02
  10.553  0.436E-01  0.419E-01  0.436E-01  0.419E-01
  10.563  0.166E+00  0.152E+00  0.166E+00  0.152E+00
  10.573  0.000E+00  0.000E+00  0.000E+00  0.000E+00
